scansci Spectrometer Data File
--- Measurement Setting ---
Type: Sample Spectrum
Date: Mon Oct 16 15:32:34 2023
User: (Reserved by scansci)
Serial: (Reserved by scansci)
Channel: No. 11
Integration Time: 1
Average: 10
Boxcar: 2
Electrical Dark: No-corrected
Time Normalize: (Reserved by scansci)
Dual-beam: (Reserved by scansci)
Reference Ch: (Reserved by scansci)
--- Measurement Data ---
Pixel   Wavelength   Intensity
    0        344.4          580
    1      344.867        579.1
    2      345.334       578.34
    3      345.801       577.08
    4      346.268       576.34
    5      346.735       576.14
    6      347.202       575.98
    7      347.669       576.08
    8      348.135       576.46
    9      348.602       576.56
   10      349.068       576.62
   11      349.535        576.9
   12      350.001       577.32
   13      350.467        577.6
   14      350.933       577.72
   15      351.399       578.12
   16      351.866        578.4
   17      352.331       578.66
   18      352.797       579.04
   19      353.263       579.52
   20      353.729       579.56
   21      354.194       579.96
   22       354.66       580.22
   23      355.126       579.98
   24      355.591       579.78
   25      356.056       579.82
   26      356.522       579.44
   27      356.987       578.62
   28      357.452        578.1
   29      357.917       577.66
   30      358.382       577.12
   31      358.847       576.76
   32      359.312          577
   33      359.776       577.44
   34      360.241        577.5
   35      360.706       577.44
   36       361.17       577.76
   37      361.634       578.38
   38      362.099       578.72
   39      362.563          579
   40      363.027       579.72
   41      363.491       580.18
   42      363.955       580.14
   43      364.419       580.28
   44      364.883       580.42
   45      365.347       580.04
   46      365.811       579.62
   47      366.274       579.16
   48      366.738       578.46
   49      367.201        578.1
   50      367.665       578.12
   51      368.128       578.24
   52      368.592       578.48
   53      369.055       578.32
   54      369.518       578.58
   55      369.981       579.26
   56      370.444        579.9
   57      370.907       580.46
   58       371.37       581.34
   59      371.832       581.36
   60      372.295       580.46
   61      372.757       579.48
   62       373.22       578.48
   63      373.682       578.02
   64      374.145       578.16
   65      374.607        578.5
   66      375.069       578.78
   67      375.531       579.16
   68      375.993       579.12
   69      376.455        578.9
   70      376.917       579.22
   71      377.379       579.88
   72      377.841        580.5
   73      378.302       580.96
   74      378.764       581.38
   75      379.225        581.7
   76      379.687        581.1
   77      380.148       580.08
   78      380.609        579.4
   79      381.071       578.76
   80      381.532        578.1
   81      381.993       578.12
   82      382.454       578.32
   83      382.915       578.16
   84      383.375       578.22
   85      383.836       578.52
   86      384.297        578.8
   87      384.757       579.02
   88      385.218        579.5
   89      385.678        579.8
   90      386.138       579.86
   91      386.599       579.88
   92      387.059       579.44
   93      387.519       578.66
   94      387.979       577.84
   95      388.439       576.78
   96      388.899        575.8
   97      389.358       575.84
   98      389.818       576.76
   99      390.278       577.96
  100      390.737       579.12
  101      391.197       580.08
  102      391.656       580.72
  103      392.115       580.42
  104      392.575       579.68
  105      393.034       578.68
  106      393.493       578.08
  107      393.952       577.74
  108      394.411        577.9
  109       394.87        578.2
  110      395.328       578.84
  111      395.787       579.26
  112      396.246       579.42
  113      396.704        579.8
  114      397.163       580.36
  115      397.621       580.46
  116      398.079       580.34
  117      398.537        580.4
  118      398.995       580.24
  119      399.454       580.34
  120      399.911        581.1
  121      400.369       581.66
  122      400.827       581.52
  123      401.285       581.14
  124      401.743       580.36
  125        402.2       579.28
  126      402.658       578.62
  127      403.115       578.82
  128      403.572       579.14
  129       404.03       579.36
  130      404.487       579.42
  131      404.944       579.16
  132      405.401       578.48
  133      405.858       578.02
  134      406.315       577.86
  135      406.771       577.94
  136      407.228       578.52
  137      407.685       579.64
  138      408.141       580.78
  139      408.598       581.14
  140      409.054       581.02
  141       409.51        580.7
  142      409.967       579.88
  143      410.423       578.64
  144      410.879       578.34
  145      411.335       578.58
  146      411.791       578.68
  147      412.246       578.46
  148      412.702       578.64
  149      413.158        578.9
  150      413.613       578.84
  151      414.069       578.92
  152      414.524       579.46
  153       414.98       579.88
  154      415.435       579.94
  155       415.89       580.44
  156      416.345       580.96
  157        416.8       581.28
  158      417.255        581.3
  159       417.71       581.42
  160      418.165       581.32
  161      418.619       580.64
  162      419.074       579.92
  163      419.529       579.38
  164      419.983       578.64
  165      420.437       578.54
  166      420.892        579.5
  167      421.346       580.54
  168        421.8       581.38
  169      422.254        582.2
  170      422.708        582.4
  171      423.162       581.58
  172      423.616       580.66
  173       424.07        580.6
  174      424.523       580.88
  175      424.977       581.14
  176       425.43       581.16
  177      425.884       580.92
  178      426.337        580.1
  179       426.79        578.9
  180      427.243       577.64
  181      427.697       577.48
  182       428.15        577.8
  183      428.602          578
  184      429.055       578.34
  185      429.508       578.98
  186      429.961        579.2
  187      430.413        579.5
  188      430.866          580
  189      431.318       580.44
  190      431.771       580.68
  191      432.223       580.44
  192      432.675        580.1
  193      433.127        579.7
  194      433.579       579.26
  195      434.031       578.68
  196      434.483       578.26
  197      434.935       578.08
  198      435.387       578.32
  199      435.838        578.7
  200       436.29       578.74
  201      436.741       578.88
  202      437.193       579.02
  203      437.644       578.46
  204      438.095       577.68
  205      438.546        577.7
  206      438.997       578.24
  207      439.448       578.12
  208      439.899       577.88
  209       440.35       577.98
  210      440.801       578.06
  211      441.251        577.5
  212      441.702       577.48
  213      442.152       578.02
  214      442.603        578.3
  215      443.053       578.12
  216      443.503       578.48
  217      443.954       578.66
  218      444.404       578.26
  219      444.854        578.1
  220      445.304       577.96
  221      445.753       577.24
  222      446.203       576.56
  223      446.653       576.34
  224      447.102       576.04
  225      447.552       576.22
  226      448.001        576.9
  227      448.451       577.44
  228        448.9       577.64
  229      449.349        577.8
  230      449.798       577.98
  231      450.247       578.12
  232      450.696       578.22
  233      451.145       578.64
  234      451.594       579.38
  235      452.042        579.6
  236      452.491       579.16
  237      452.939       579.02
  238      453.388       579.12
  239      453.836       579.06
  240      454.285       578.96
  241      454.733       579.06
  242      455.181       578.96
  243      455.629        578.7
  244      456.077       578.18
  245      456.525       577.52
  246      456.972       577.14
  247       457.42       577.18
  248      457.868       577.52
  249      458.315       577.94
  250      458.763       578.38
  251       459.21       578.82
  252      459.657       578.74
  253      460.104          578
  254      460.552       577.56
  255      460.999       577.52
  256      461.446       577.56
  257      461.892       577.92
  258      462.339       578.58
  259      462.786       579.28
  260      463.233       579.92
  261      463.679       580.26
  262      464.125       580.62
  263      464.572        580.9
  264      465.018       580.36
  265      465.464       579.88
  266       465.91       579.56
  267      466.356       579.02
  268      466.802       578.54
  269      467.248          579
  270      467.694       579.92
  271       468.14       580.88
  272      468.585       581.46
  273      469.031       581.88
  274      469.476       582.02
  275      469.922       581.88
  276      470.367       581.84
  277      470.812       581.84
  278      471.257       581.54
  279      471.702       581.28
  280      472.147       581.28
  281      472.592       581.18
  282      473.037       581.24
  283      473.482       581.28
  284      473.926        580.9
  285      474.371       580.14
  286      474.815       579.92
  287      475.259        580.1
  288      475.704       580.66
  289      476.148       581.38
  290      476.592        581.6
  291      477.036        581.2
  292       477.48       581.22
  293      477.924       581.28
  294      478.368       581.18
  295      478.811       581.68
  296      479.255        582.6
  297      479.698        582.9
  298      480.142          583
  299      480.585       582.98
  300      481.028       582.42
  301      481.472       581.68
  302      481.915       580.92
  303      482.358       580.28
  304      482.801       580.52
  305      483.244       581.28
  306      483.686       581.84
  307      484.129       582.46
  308      484.572       583.26
  309      485.014        583.4
  310      485.456       583.06
  311      485.899       582.76
  312      486.341        582.8
  313      486.783       582.98
  314      487.225        583.2
  315      487.667       583.54
  316      488.109       583.76
  317      488.551       583.86
  318      488.993        584.1
  319      489.434       584.86
  320      489.876       586.26
  321      490.318       588.28
  322      490.759       590.44
  323        491.2       592.44
  324      491.641       594.04
  325      492.083        595.3
  326      492.524       596.86
  327      492.965       598.92
  328      493.406        601.3
  329      493.846       604.42
  330      494.287        608.2
  331      494.728       612.02
  332      495.168       615.64
  333      495.609       619.06
  334      496.049       622.56
  335      496.489       625.82
  336       496.93       628.64
  337       497.37       631.44
  338       497.81       634.96
  339       498.25       638.66
  340       498.69       643.32
  341      499.129       648.62
  342      499.569        654.1
  343      500.009       659.62
  344      500.448       664.92
  345      500.888       669.92
  346      501.327       675.46
  347      501.766       681.44
  348      502.206       686.74
  349      502.645        691.5
  350      503.084       695.72
  351      503.523       700.38
  352      503.961        705.1
  353        504.4       710.22
  354      504.839       715.98
  355      505.277       722.04
  356      505.716       726.76
  357      506.154        731.1
  358      506.593       735.92
  359      507.031       740.84
  360      507.469       745.84
  361      507.907       751.52
  362      508.345       757.72
  363      508.783       763.76
  364      509.221       769.06
  365      509.659       774.42
  366      510.096       779.98
  367      510.534       785.34
  368      510.971       790.54
  369      511.409       796.34
  370      511.846        801.8
  371      512.283       806.68
  372       512.72        811.7
  373      513.157        817.1
  374      513.594       822.54
  375      514.031        828.7
  376      514.468       835.24
  377      514.905       841.92
  378      515.341       848.38
  379      515.778       853.86
  380      516.214       859.24
  381       516.65       865.36
  382      517.087        871.3
  383      517.523       877.22
  384      517.959        884.3
  385      518.395       891.02
  386      518.831          897
  387      519.267       902.52
  388      519.702        907.9
  389      520.138       913.24
  390      520.574        918.9
  391      521.009       925.12
  392      521.444       931.78
  393       521.88       938.72
  394      522.315       946.16
  395       522.75       953.84
  396      523.185       961.38
  397       523.62       968.16
  398      524.055       974.36
  399       524.49       980.16
  400      524.924       985.86
  401      525.359       991.78
  402      525.794       999.06
  403      526.228      1007.48
  404      526.662      1015.76
  405      527.097      1023.46
  406      527.531       1030.5
  407      527.965       1037.4
  408      528.399      1043.72
  409      528.833      1050.44
  410      529.267      1058.42
  411        529.7      1067.26
  412      530.134       1075.9
  413      530.568      1083.88
  414      531.001       1091.4
  415      531.434      1098.02
  416      531.868      1104.22
  417      532.301      1111.06
  418      532.734      1118.74
  419      533.167         1127
  420        533.6      1136.14
  421      534.033      1145.44
  422      534.466      1153.72
  423      534.898      1162.64
  424      535.331      1172.28
  425      535.763      1181.52
  426      536.196      1190.74
  427      536.628      1201.12
  428       537.06      1212.02
  429      537.493      1222.12
  430      537.925       1231.6
  431      538.357      1240.84
  432      538.788      1248.82
  433       539.22      1255.38
  434      539.652      1262.84
  435      540.084      1271.26
  436      540.515      1280.12
  437      540.947      1289.58
  438      541.378       1298.8
  439      541.809       1308.2
  440       542.24      1317.88
  441      542.672      1325.82
  442      543.103      1332.62
  443      543.533       1340.3
  444      543.964      1346.98
  445      544.395      1352.78
  446      544.826      1360.66
  447      545.256      1369.96
  448      545.687      1379.24
  449      546.117      1389.56
  450      546.547         1401
  451      546.978      1411.84
  452      547.408      1421.02
  453      547.838      1429.66
  454      548.268      1437.66
  455      548.698       1444.7
  456      549.127      1452.24
  457      549.557      1461.76
  458      549.987      1472.26
  459      550.416       1482.3
  460      550.846      1491.52
  461      551.275       1499.8
  462      551.704       1507.9
  463      552.133      1516.82
  464      552.562      1527.38
  465      552.991      1539.32
  466       553.42       1552.2
  467      553.849      1565.06
  468      554.278       1576.9
  469      554.706      1588.42
  470      555.135      1600.58
  471      555.563      1612.32
  472      555.991      1623.98
  473       556.42      1636.56
  474      556.848      1649.78
  475      557.276      1662.96
  476      557.704       1676.5
  477      558.132      1691.46
  478       558.56      1706.34
  479      558.987      1719.14
  480      559.415         1732
  481      559.843      1746.72
  482       560.27       1761.6
  483      560.697      1777.06
  484      561.125      1794.92
  485      561.552      1812.64
  486      561.979      1828.08
  487      562.406      1841.72
  488      562.833       1854.6
  489       563.26      1866.82
  490      563.686      1880.72
  491      564.113       1897.5
  492       564.54       1916.6
  493      564.966      1936.38
  494      565.392      1955.54
  495      565.819      1975.08
  496      566.245      1994.94
  497      566.671      2013.56
  498      567.097      2032.32
  499      567.523      2053.28
  500      567.949      2074.12
  501      568.374      2094.04
  502        568.8      2114.02
  503      569.226      2133.78
  504      569.651       2155.2
  505      570.077      2176.86
  506      570.502      2197.84
  507      570.927      2219.42
  508      571.352       2241.2
  509      571.777      2260.18
  510      572.202       2277.8
  511      572.627      2297.34
  512      573.052      2318.36
  513      573.476      2339.86
  514      573.901      2362.88
  515      574.325      2386.58
  516       574.75      2409.06
  517      575.174      2430.58
  518      575.598      2451.42
  519      576.022      2471.28
  520      576.446      2491.94
  521       576.87       2514.3
  522      577.294      2538.46
  523      577.718      2564.44
  524      578.142      2589.74
  525      578.565         2615
  526      578.989      2640.04
  527      579.412      2663.98
  528      579.835      2687.52
  529      580.259      2712.44
  530      580.682      2736.78
  531      581.105       2758.6
  532      581.528       2781.4
  533      581.951       2805.2
  534      582.373      2830.02
  535      582.796      2855.12
  536      583.219      2881.38
  537      583.641       2907.6
  538      584.063      2931.96
  539      584.486       2954.6
  540      584.908      2978.42
  541       585.33      3004.14
  542      585.752      3028.72
  543      586.174      3054.98
  544      586.596      3082.08
  545      587.018       3107.8
  546      587.439      3131.86
  547      587.861      3155.38
  548      588.282      3177.34
  549      588.704      3198.88
  550      589.125      3220.56
  551      589.546      3243.66
  552      589.967      3267.52
  553      590.388      3292.58
  554      590.809      3320.04
  555       591.23      3348.92
  556      591.651       3376.2
  557      592.071      3404.36
  558      592.492      3434.92
  559      592.912      3465.32
  560      593.333      3494.56
  561      593.753      3521.74
  562      594.173      3546.82
  563      594.593      3566.58
  564      595.013      3581.28
  565      595.433      3593.02
  566      595.853      3604.02
  567      596.273      3615.22
  568      596.693      3624.46
  569      597.112       3631.1
  570      597.532       3639.1
  571      597.951      3646.16
  572       598.37      3649.36
  573      598.789       3655.2
  574      599.208      3662.96
  575      599.627      3667.94
  576      600.046      3674.08
  577      600.465      3680.48
  578      600.884      3683.48
  579      601.303      3687.62
  580      601.721       3691.3
  581      602.139       3692.1
  582      602.558       3695.3
  583      602.976      3701.66
  584      603.394      3704.78
  585      603.812      3707.18
  586       604.23      3711.58
  587      604.648      3713.26
  588      605.066      3709.98
  589      605.484      3707.44
  590      605.901      3705.46
  591      606.319       3703.8
  592      606.736      3704.36
  593      607.154       3706.5
  594      607.571      3707.38
  595      607.988      3706.48
  596      608.405      3704.62
  597      608.822      3701.66
  598      609.239      3701.06
  599      609.656      3701.96
  600      610.072      3702.04
  601      610.489      3700.04
  602      610.905       3695.1
  603      611.322      3688.74
  604      611.738      3683.66
  605      612.154       3679.3
  606       612.57      3675.08
  607      612.986      3670.96
  608      613.402       3664.6
  609      613.818       3656.5
  610      614.234      3649.06
