scansci Spectrometer Data File
--- Measurement Setting ---
Type: Sample Spectrum
Date: Mon Oct 16 15:34:21 2023
User: (Reserved by scansci)
Serial: (Reserved by scansci)
Channel: No. 11
Integration Time: 1
Average: 10
Boxcar: 2
Electrical Dark: No-corrected
Time Normalize: (Reserved by scansci)
Dual-beam: (Reserved by scansci)
Reference Ch: (Reserved by scansci)
--- Measurement Data ---
Pixel   Wavelength   Intensity
    0        162.5        741.1
    1      162.985      742.275
    2      163.469       743.16
    3      163.954        745.2
    4      164.439       746.18
    5      164.923       747.16
    6      165.408       748.22
    7      165.892       749.54
    8      166.377       750.96
    9      166.861       751.68
   10      167.345       751.92
   11       167.83       751.92
   12      168.314       751.24
   13      168.798       750.14
   14      169.282       749.26
   15      169.766       748.44
   16       170.25       747.26
   17      170.734       746.54
   18      171.218       746.48
   19      171.702       746.48
   20      172.185       746.64
   21      172.669       747.46
   22      173.153        748.1
   23      173.636       748.56
   24       174.12       748.96
   25      174.603       748.98
   26      175.087       749.08
   27       175.57       750.32
   28      176.053        751.9
   29      176.537       753.82
   30       177.02        755.5
   31      177.503       756.22
   32      177.986       756.28
   33      178.469        755.6
   34      178.952       754.38
   35      179.435       753.66
   36      179.918       753.12
   37      180.401          752
   38      180.884       750.84
   39      181.366       750.36
   40      181.849       750.12
   41      182.332        750.5
   42      182.814       751.06
   43      183.297       751.92
   44      183.779        752.5
   45      184.262       752.94
   46      184.744       753.12
   47      185.226       753.26
   48      185.708       753.34
   49      186.191       753.64
   50      186.673       754.28
   51      187.155        754.8
   52      187.637       755.04
   53      188.119       754.88
   54        188.6          754
   55      189.082       752.92
   56      189.564       752.22
   57      190.046       752.22
   58      190.527       753.16
   59      191.009       754.44
   60      191.491       755.02
   61      191.972       755.36
   62      192.454       754.92
   63      192.935       754.22
   64      193.416       753.92
   65      193.897       753.86
   66      194.379        753.6
   67       194.86       753.94
   68      195.341       754.34
   69      195.822       754.88
   70      196.303       755.54
   71      196.784        756.2
   72      197.265       756.74
   73      197.746       756.54
   74      198.226        755.5
   75      198.707       754.94
   76      199.188       754.74
   77      199.668       754.54
   78      200.149       754.82
   79      200.629       755.22
   80       201.11       755.02
   81       201.59        754.6
   82       202.07       754.04
   83       202.55       753.86
   84      203.031        754.2
   85      203.511       754.74
   86      203.991       755.22
   87      204.471       755.84
   88      204.951       755.84
   89      205.431        755.2
   90       205.91       754.56
   91       206.39       753.88
   92       206.87        753.4
   93      207.349        753.9
   94      207.829       755.16
   95      208.309       756.92
   96      208.788       758.94
   97      209.267       759.98
   98      209.747        759.9
   99      210.226       759.62
  100      210.705       758.66
  101      211.185       757.44
  102      211.664        757.3
  103      212.143       757.52
  104      212.622       757.48
  105      213.101       757.72
  106      213.579          758
  107      214.058       757.72
  108      214.537       757.16
  109      215.016        756.9
  110      215.494       757.28
  111      215.973       757.34
  112      216.452       756.94
  113       216.93       756.58
  114      217.408       755.84
  115      217.887       754.84
  116      218.365       754.72
  117      218.843       754.88
  118      219.321        755.1
  119      219.799       756.04
  120      220.278       756.82
  121      220.755        757.1
  122      221.233       757.82
  123      221.711       758.66
  124      222.189       758.84
  125      222.667          759
  126      223.144       759.46
  127      223.622       760.04
  128        224.1       760.74
  129      224.577       761.48
  130      225.055       761.76
  131      225.532       761.72
  132      226.009       761.28
  133      226.486       760.64
  134      226.964        759.7
  135      227.441       759.38
  136      227.918       759.06
  137      228.395        759.2
  138      228.872       759.72
  139      229.349       760.76
  140      229.826       761.24
  141      230.302       761.42
  142      230.779        761.3
  143      231.256       761.06
  144      231.732       760.34
  145      232.209       759.72
  146      232.685        759.2
  147      233.162        758.9
  148      233.638       759.02
  149      234.114       759.68
  150       234.59       760.88
  151      235.066       762.44
  152      235.543       763.28
  153      236.019       763.12
  154      236.495       763.16
  155       236.97       763.14
  156      237.446       762.68
  157      237.922        762.3
  158      238.398       762.26
  159      238.873       761.96
  160      239.349       761.58
  161      239.824        761.2
  162        240.3       760.94
  163      240.775       761.04
  164      241.251       761.24
  165      241.726        761.4
  166      242.201        761.5
  167      242.676        761.4
  168      243.151       760.68
  169      243.626       759.56
  170      244.101       758.54
  171      244.576       758.12
  172      245.051       758.12
  173      245.526       758.54
  174          246        759.3
  175      246.475       759.96
  176       246.95       760.46
  177      247.424        760.5
  178      247.899        760.1
  179      248.373        759.7
  180      248.847       759.72
  181      249.321       760.02
  182      249.796        760.4
  183       250.27       760.44
  184      250.744       760.34
  185      251.218       760.26
  186      251.692          760
  187      252.166        759.6
  188      252.639       759.76
  189      253.113        760.4
  190      253.587        760.7
  191       254.06       760.88
  192      254.534       761.32
  193      255.007       761.44
  194      255.481       760.98
  195      255.954       760.52
  196      256.427       760.24
  197      256.901       760.44
  198      257.374       761.68
  199      257.847       762.58
  200       258.32        762.6
  201      258.793        762.6
  202      259.266        762.6
  203      259.739        762.2
  204      260.211       762.14
  205      260.684       763.18
  206      261.157       764.14
  207      261.629       764.68
  208      262.102       764.86
  209      262.574       764.84
  210      263.046       764.68
  211      263.519       764.34
  212      263.991        763.8
  213      264.463       763.34
  214      264.935        763.5
  215      265.407       763.62
  216      265.879       763.94
  217      266.351       764.16
  218      266.823       764.76
  219      267.295       765.08
  220      267.766       764.82
  221      268.238        764.3
  222       268.71        764.4
  223      269.181       764.96
  224      269.653       765.62
  225      270.124       766.04
  226      270.595       766.52
  227      271.066       766.84
  228      271.538       766.26
  229      272.009       765.44
  230       272.48       764.86
  231      272.951       763.98
  232      273.422       763.44
  233      273.892       763.52
  234      274.363       763.56
  235      274.834       763.64
  236      275.305       764.38
  237      275.775       764.92
  238      276.246        764.7
  239      276.716       764.78
  240      277.186       765.34
  241      277.657       765.72
  242      278.127        765.8
  243      278.597       766.28
  244      279.067       766.44
  245      279.537       766.34
  246      280.007        766.2
  247      280.477        766.4
  248      280.947       766.42
  249      281.417        766.5
  250      281.886       766.34
  251      282.356       765.52
  252      282.825       764.68
  253      283.295       763.84
  254      283.764       762.44
  255      284.234       761.76
  256      284.703       761.92
  257      285.172       761.44
  258      285.641       761.18
  259       286.11       761.78
  260      286.579       762.38
  261      287.048       763.06
  262      287.517        763.5
  263      287.986       763.28
  264      288.454       762.66
  265      288.923       762.36
  266      289.392       762.24
  267       289.86        762.7
  268      290.329       763.74
  269      290.797       765.14
  270      291.265       765.72
  271      291.734       765.78
  272      292.202        765.6
  273       292.67       765.02
  274      293.138          765
  275      293.606       765.04
  276      294.074        764.6
  277      294.541        764.4
  278      295.009       764.86
  279      295.477       765.48
  280      295.944       766.34
  281      296.412       767.58
  282      296.879       768.46
  283      297.347       768.58
  284      297.814       768.18
  285      298.281       767.54
  286      298.749       766.64
  287      299.216       765.78
  288      299.683       765.76
  289       300.15       765.78
  290      300.616       765.54
  291      301.083       765.72
  292       301.55       766.42
  293      302.017        766.6
  294      302.483       765.68
  295       302.95       764.96
  296      303.416       764.02
  297      303.883       762.98
  298      304.349       762.14
  299      304.815       762.04
  300      305.281       762.14
  301      305.748       762.28
  302      306.214       762.86
  303       306.68       763.92
  304      307.146       764.72
  305      307.611        764.6
  306      308.077       764.58
  307      308.543        764.7
  308      309.008       764.58
  309      309.474       763.94
  310      309.939       763.52
  311      310.405       763.14
  312       310.87       762.62
  313      311.335       762.26
  314        311.8        762.7
  315      312.266       763.26
  316      312.731       763.86
  317      313.196       764.18
  318       313.66       763.42
  319      314.125       762.84
  320       314.59       763.06
  321      315.055       763.54
  322      315.519       764.28
  323      315.984       765.62
  324      316.448        766.8
  325      316.913       767.78
  326      317.377       768.34
  327      317.841       768.62
  328      318.305       768.98
  329      318.769       769.12
  330      319.233       768.82
  331      319.697       768.56
  332      320.161       768.08
  333      320.625       767.44
  334      321.089       767.14
  335      321.552       767.16
  336      322.016       767.62
  337      322.479       768.34
  338      322.943       768.72
  339      323.406        768.7
  340      323.869       768.56
  341      324.333       767.38
  342      324.796       765.88
  343      325.259       765.28
  344      325.722       765.02
  345      326.185       764.82
  346      326.647        764.9
  347       327.11       764.54
  348      327.573       764.34
  349      328.035       764.28
  350      328.498       764.04
  351       328.96       763.96
  352      329.423       764.24
  353      329.885       764.08
  354      330.347       764.18
  355       330.81       764.92
  356      331.272       765.28
  357      331.734          765
  358      332.196        764.8
  359      332.657       764.28
  360      333.119       763.28
  361      333.581       763.46
  362      334.043       764.96
  363      334.504        766.3
  364      334.966        767.4
  365      335.427       768.72
  366      335.888       769.26
  367       336.35       768.64
  368      336.811       767.18
  369      337.272       765.32
  370      337.733       763.38
  371      338.194       762.36
  372      338.655       762.74
  373      339.115       764.06
  374      339.576       766.06
  375      340.037       768.22
  376      340.497       769.18
  377      340.958       769.08
  378      341.418       768.72
  379      341.879       768.48
  380      342.339       768.22
  381      342.799       768.72
  382      343.259       769.54
  383      343.719       769.88
  384      344.179        769.8
  385      344.639       769.56
  386      345.099       768.94
  387      345.559       768.48
  388      346.018       768.32
  389      346.478       768.16
  390      346.937       767.98
  391      347.397       767.58
  392      347.856       767.22
  393      348.315       766.98
  394      348.774       766.52
  395      349.234        766.2
  396      349.693        766.2
  397      350.152       765.74
  398       350.61        765.4
  399      351.069          766
  400      351.528       766.56
  401      351.987       767.18
  402      352.445       768.24
  403      352.904       768.44
  404      353.362       767.62
  405       353.82       766.68
  406      354.279       765.68
  407      354.737       764.42
  408      355.195       764.06
  409      355.653       764.22
  410      356.111        764.4
  411      356.569       764.52
  412      357.027       764.54
  413      357.484       764.74
  414      357.942        764.9
  415      358.399       764.96
  416      358.857       765.66
  417      359.314       766.36
  418      359.772       766.28
  419      360.229       765.56
  420      360.686        764.7
  421      361.143       763.58
  422        361.6       763.08
  423      362.057       763.46
  424      362.514       764.24
  425      362.971       764.86
  426      363.427        765.2
  427      363.884       765.78
  428       364.34       765.96
  429      364.797       766.14
  430      365.253       766.64
  431      365.709       767.48
  432      366.166       767.86
  433      366.622       768.18
  434      367.078       768.66
  435      367.534       768.28
  436       367.99        767.7
  437      368.445       767.34
  438      368.901       767.46
  439      369.357        767.8
  440      369.812       768.78
  441      370.268       769.38
  442      370.723       769.68
  443      371.179       770.02
  444      371.634        770.5
  445      372.089       770.92
  446      372.544       771.38
  447      372.999       771.94
  448      373.454       771.92
  449      373.909       771.32
  450      374.364       771.68
  451      374.818          773
  452      375.273       774.12
  453      375.727       775.04
  454      376.182       775.48
  455      376.636       775.22
  456       377.09       774.22
  457      377.545       773.48
  458      377.999       773.04
  459      378.453       772.94
  460      378.907       772.82
  461      379.361       772.32
  462      379.814       771.46
  463      380.268       770.86
  464      380.722        770.7
  465      381.175       770.62
  466      381.629       770.54
  467      382.082        770.1
  468      382.535       769.94
  469      382.989       770.16
  470      383.442       769.78
  471      383.895       769.52
  472      384.348       770.72
  473      384.801       772.04
  474      385.253       773.12
  475      385.706       774.76
  476      386.159       776.52
  477      386.611        776.9
  478      387.064       776.48
  479      387.516       775.58
  480      387.968       774.32
  481      388.421        773.2
  482      388.873       773.24
  483      389.325        773.8
  484      389.777       774.38
  485      390.229          775
  486      390.681        775.4
  487      391.132        775.2
  488      391.584        775.2
  489      392.035       775.96
  490      392.487       776.82
  491      392.938       777.22
  492       393.39        777.7
  493      393.841       778.06
  494      394.292       777.36
  495      394.743       776.92
  496      395.194       777.74
  497      395.645       778.72
  498      396.096       779.66
  499      396.546        781.1
  500      396.997       782.16
  501      397.448       781.72
  502      397.898        781.1
  503      398.349       781.04
  504      398.799       780.96
  505      399.249       780.76
  506      399.699        781.8
  507      400.149       783.16
  508      400.599        783.6
  509      401.049       783.86
  510      401.499       784.36
  511      401.949       784.34
  512      402.398       783.76
  513      402.848       783.26
  514      403.297       782.88
  515      403.747       782.96
  516      404.196       783.46
  517      404.645       784.38
  518      405.094       786.36
  519      405.543       788.86
  520      405.992       790.88
  521      406.441       793.14
  522       406.89       795.98
  523      407.339        798.1
  524      407.787        800.3
  525      408.236       803.68
  526      408.684        806.8
  527      409.132       808.98
  528      409.581       811.08
  529      410.029       813.38
  530      410.477       815.24
  531      410.925       817.08
  532      411.373       819.44
  533      411.821       823.06
  534      412.269       827.86
  535      412.716       833.62
  536      413.164       840.12
  537      413.611          847
  538      414.059       853.48
  539      414.506       859.94
  540      414.953       866.76
  541        415.4       873.76
  542      415.847        881.5
  543      416.294       889.94
  544      416.741       897.98
  545      417.188       906.68
  546      417.635       917.22
  547      418.081        928.9
  548      418.528       941.04
  549      418.974       954.14
  550      419.421       967.06
  551      419.867       979.82
  552      420.313        993.8
  553      420.759       1008.8
  554      421.205      1024.84
  555      421.651      1042.16
  556      422.097       1059.9
  557      422.543      1077.08
  558      422.989       1094.7
  559      423.434       1113.5
  560       423.88       1133.3
  561      424.325      1154.56
  562       424.77      1177.16
  563      425.216      1200.74
  564      425.661       1225.1
  565      426.106      1250.64
  566      426.551      1278.08
  567      426.996      1307.32
  568       427.44      1338.76
  569      427.885      1372.74
  570       428.33       1408.5
  571      428.774      1444.68
  572      429.219       1480.3
  573      429.663      1516.24
  574      430.107         1554
  575      430.551      1592.96
  576      430.996      1632.76
  577       431.44      1676.76
  578      431.883      1723.86
  579      432.327      1772.04
  580      432.771      1821.58
  581      433.215      1872.82
  582      433.658       1924.7
  583      434.102       1977.9
  584      434.545       2030.2
  585      434.988       2083.3
  586      435.431      2138.38
  587      435.875      2193.78
  588      436.318         2254
  589      436.761      2320.68
  590      437.203      2390.42
  591      437.646      2461.66
  592      438.089       2535.4
  593      438.531      2611.58
  594      438.974      2691.08
  595      439.416      2775.44
  596      439.859       2866.5
  597      440.301      2961.92
  598      440.743      3056.48
  599      441.185       3153.8
  600      441.627       3257.1
  601      442.069      3363.04
  602       442.51      3464.78
  603      442.952      3558.74
  604      443.394       3646.4
  605      443.835         3729
  606      444.277       3808.2
  607      444.718      3892.34
  608      445.159      3990.54
  609        445.6      4105.16
  610      446.041      4232.96
