scansci Spectrometer Data File
--- Measurement Setting ---
Type: Sample Spectrum
Date: Mon Oct 16 17:56:55 2023
User: (Reserved by scansci)
Serial: (Reserved by scansci)
Channel: No. 11
Integration Time: 1
Average: 10
Boxcar: 2
Electrical Dark: No-corrected
Time Normalize: (Reserved by scansci)
Dual-beam: (Reserved by scansci)
Reference Ch: (Reserved by scansci)
--- Measurement Data ---
Pixel   Wavelength   Intensity
    0        344.4        610.4
    1      344.867       610.65
    2      345.334       610.64
    3      345.801        610.1
    4      346.268       609.12
    5      346.735       608.16
    6      347.202       607.36
    7      347.669        606.7
    8      348.135       606.54
    9      348.602       607.18
   10      349.068       608.06
   11      349.535       608.12
   12      350.001       607.86
   13      350.467       608.02
   14      350.933        607.6
   15      351.399       606.82
   16      351.866       606.58
   17      352.331        606.7
   18      352.797       606.52
   19      353.263       606.22
   20      353.729       605.98
   21      354.194       605.78
   22       354.66       605.82
   23      355.126        605.7
   24      355.591       605.94
   25      356.056        606.2
   26      356.522        606.2
   27      356.987       606.12
   28      357.452       605.78
   29      357.917       605.08
   30      358.382       604.64
   31      358.847       604.72
   32      359.312       605.52
   33      359.776       607.22
   34      360.241        609.2
   35      360.706       610.72
   36       361.17       611.52
   37      361.634       611.12
   38      362.099       609.66
   39      362.563       608.04
   40      363.027       606.88
   41      363.491        606.7
   42      363.955       607.14
   43      364.419       607.94
   44      364.883       609.26
   45      365.347       610.32
   46      365.811       610.38
   47      366.274       609.98
   48      366.738        609.6
   49      367.201       609.22
   50      367.665       608.84
   51      368.128       608.62
   52      368.592       608.14
   53      369.055       607.94
   54      369.518       607.84
   55      369.981       607.86
   56      370.444       607.68
   57      370.907       607.52
   58       371.37       607.28
   59      371.832       606.88
   60      372.295       606.52
   61      372.757       607.04
   62       373.22       607.98
   63      373.682        608.2
   64      374.145        608.2
   65      374.607       607.98
   66      375.069       607.26
   67      375.531        606.9
   68      375.993       607.64
   69      376.455       608.18
   70      376.917       608.86
   71      377.379       609.62
   72      377.841        609.5
   73      378.302          609
   74      378.764        608.8
   75      379.225        608.4
   76      379.687        608.1
   77      380.148       608.36
   78      380.609       608.16
   79      381.071       607.66
   80      381.532        606.9
   81      381.993       605.44
   82      382.454       604.16
   83      382.915       603.96
   84      383.375       603.98
   85      383.836        604.3
   86      384.297       605.16
   87      384.757        605.9
   88      385.218       606.38
   89      385.678       607.32
   90      386.138       608.66
   91      386.599       610.18
   92      387.059        611.5
   93      387.519       612.02
   94      387.979       611.98
   95      388.439       611.76
   96      388.899       611.16
   97      389.358       610.76
   98      389.818       610.86
   99      390.278       611.06
  100      390.737        611.4
  101      391.197        612.4
  102      391.656       612.74
  103      392.115       612.28
  104      392.575       611.38
  105      393.034       610.48
  106      393.493       609.26
  107      393.952       608.32
  108      394.411       607.96
  109       394.87        608.2
  110      395.328       608.24
  111      395.787       608.32
  112      396.246       608.62
  113      396.704       608.88
  114      397.163       609.32
  115      397.621       609.98
  116      398.079       610.44
  117      398.537       610.92
  118      398.995       611.28
  119      399.454       610.72
  120      399.911        609.2
  121      400.369       607.68
  122      400.827       606.58
  123      401.285       606.62
  124      401.743        607.6
  125        402.2       608.68
  126      402.658       609.54
  127      403.115       610.22
  128      403.572       610.02
  129       404.03        609.2
  130      404.487       608.68
  131      404.944       608.26
  132      405.401       607.62
  133      405.858       606.76
  134      406.315       606.22
  135      406.771       606.48
  136      407.228       607.02
  137      407.685        607.6
  138      408.141       608.54
  139      408.598       609.46
  140      409.054       609.64
  141       409.51       609.86
  142      409.967       609.76
  143      410.423       609.42
  144      410.879       608.88
  145      411.335       608.42
  146      411.791       608.02
  147      412.246       607.62
  148      412.702       607.36
  149      413.158       607.38
  150      413.613       607.84
  151      414.069        608.4
  152      414.524          609
  153       414.98       609.06
  154      415.435       608.64
  155       415.89          608
  156      416.345        607.3
  157        416.8       606.76
  158      417.255       606.68
  159       417.71       606.76
  160      418.165       606.84
  161      418.619       606.96
  162      419.074       607.54
  163      419.529       608.72
  164      419.983       610.16
  165      420.437       611.14
  166      420.892       611.52
  167      421.346       610.98
  168        421.8       609.38
  169      422.254        607.9
  170      422.708       607.32
  171      423.162       606.84
  172      423.616       606.42
  173       424.07       607.16
  174      424.523       608.46
  175      424.977       609.38
  176       425.43       610.48
  177      425.884       611.74
  178      426.337        612.4
  179       426.79        612.1
  180      427.243       611.28
  181      427.697        610.2
  182       428.15       609.28
  183      428.602       608.36
  184      429.055       607.66
  185      429.508       607.52
  186      429.961       607.68
  187      430.413        607.9
  188      430.866       608.08
  189      431.318        608.1
  190      431.771        608.2
  191      432.223       607.94
  192      432.675       607.36
  193      433.127       606.58
  194      433.579          606
  195      434.031       605.46
  196      434.483        605.4
  197      434.935        605.8
  198      435.387       606.26
  199      435.838       606.58
  200       436.29       606.78
  201      436.741       607.04
  202      437.193       607.06
  203      437.644       606.84
  204      438.095       606.74
  205      438.546       606.58
  206      438.997        606.2
  207      439.448       605.72
  208      439.899       605.84
  209       440.35       606.52
  210      440.801        607.1
  211      441.251       607.36
  212      441.702       607.84
  213      442.152       608.08
  214      442.603        607.7
  215      443.053       607.02
  216      443.503       606.48
  217      443.954       606.16
  218      444.404        605.9
  219      444.854       605.58
  220      445.304       605.86
  221      445.753       606.54
  222      446.203       607.06
  223      446.653       607.38
  224      447.102        608.1
  225      447.552       609.16
  226      448.001       609.52
  227      448.451       609.08
  228        448.9       608.64
  229      449.349       608.12
  230      449.798       606.66
  231      450.247       605.62
  232      450.696       605.82
  233      451.145       606.24
  234      451.594        606.5
  235      452.042       607.52
  236      452.491       608.54
  237      452.939       608.64
  238      453.388        608.8
  239      453.836          609
  240      454.285       608.44
  241      454.733       607.36
  242      455.181        606.7
  243      455.629       606.22
  244      456.077       605.94
  245      456.525          606
  246      456.972       606.46
  247       457.42       606.94
  248      457.868       607.22
  249      458.315       606.94
  250      458.763        606.5
  251       459.21       606.28
  252      459.657       606.28
  253      460.104       606.38
  254      460.552       606.84
  255      460.999       607.38
  256      461.446       607.56
  257      461.892       607.42
  258      462.339       607.38
  259      462.786       607.46
  260      463.233        607.5
  261      463.679       607.92
  262      464.125       608.64
  263      464.572       608.88
  264      465.018       608.76
  265      465.464       608.48
  266       465.91       607.88
  267      466.356       607.18
  268      466.802       606.66
  269      467.248       606.42
  270      467.694       606.86
  271       468.14       607.74
  272      468.585       608.38
  273      469.031       608.36
  274      469.476       608.46
  275      469.922       608.06
  276      470.367       607.56
  277      470.812        607.4
  278      471.257       607.82
  279      471.702       608.14
  280      472.147       608.54
  281      472.592       608.52
  282      473.037       608.22
  283      473.482       608.08
  284      473.926       607.82
  285      474.371       607.58
  286      474.815        607.8
  287      475.259       608.06
  288      475.704       607.84
  289      476.148       607.52
  290      476.592       607.14
  291      477.036       606.32
  292       477.48        605.3
  293      477.924        605.1
  294      478.368       605.52
  295      478.811       605.84
  296      479.255        606.3
  297      479.698       607.08
  298      480.142        607.5
  299      480.585       607.02
  300      481.028       606.18
  301      481.472       605.22
  302      481.915       604.62
  303      482.358       604.32
  304      482.801       604.48
  305      483.244       605.26
  306      483.686        605.7
  307      484.129       605.24
  308      484.572       604.74
  309      485.014        604.6
  310      485.456       604.52
  311      485.899       605.16
  312      486.341       606.62
  313      486.783        607.7
  314      487.225          608
  315      487.667       608.12
  316      488.109       608.12
  317      488.551       607.58
  318      488.993       607.14
  319      489.434       607.06
  320      489.876       606.84
  321      490.318        606.7
  322      490.759       607.34
  323        491.2        608.3
  324      491.641        608.6
  325      492.083        608.3
  326      492.524       607.82
  327      492.965       606.98
  328      493.406       606.24
  329      493.846       606.14
  330      494.287       606.54
  331      494.728       607.06
  332      495.168       607.34
  333      495.609       607.16
  334      496.049        606.7
  335      496.489          606
  336       496.93       605.12
  337       497.37        604.8
  338       497.81       605.08
  339       498.25       605.64
  340       498.69       606.42
  341      499.129       607.26
  342      499.569       607.88
  343      500.009       607.84
  344      500.448        607.7
  345      500.888       607.58
  346      501.327       607.68
  347      501.766        607.6
  348      502.206       607.24
  349      502.645       606.68
  350      503.084       606.14
  351      503.523       605.74
  352      503.961       605.74
  353        504.4       606.06
  354      504.839       605.94
  355      505.277       605.84
  356      505.716       606.02
  357      506.154       606.16
  358      506.593       606.82
  359      507.031       607.84
  360      507.469       608.56
  361      507.907        608.7
  362      508.345        608.1
  363      508.783       607.12
  364      509.221       606.44
  365      509.659       606.24
  366      510.096        606.5
  367      510.534       607.02
  368      510.971       607.56
  369      511.409       607.96
  370      511.846       607.54
  371      512.283        606.4
  372       512.72       605.64
  373      513.157       605.16
  374      513.594       604.74
  375      514.031       604.68
  376      514.468       605.22
  377      514.905       605.88
  378      515.341       606.02
  379      515.778       605.58
  380      516.214       605.34
  381       516.65       605.16
  382      517.087       604.64
  383      517.523       603.64
  384      517.959       603.66
  385      518.395       604.14
  386      518.831       604.36
  387      519.267       604.54
  388      519.702        605.6
  389      520.138        606.5
  390      520.574        607.4
  391      521.009       608.32
  392      521.444       608.58
  393       521.88        608.7
  394      522.315       608.72
  395       522.75       608.68
  396      523.185       608.96
  397       523.62       609.64
  398      524.055        609.8
  399       524.49       610.18
  400      524.924       610.76
  401      525.359       610.68
  402      525.794        610.1
  403      526.228       609.52
  404      526.662       608.68
  405      527.097       607.42
  406      527.531       606.12
  407      527.965       605.68
  408      528.399       605.68
  409      528.833       605.78
  410      529.267       605.96
  411        529.7       606.34
  412      530.134       606.42
  413      530.568       606.48
  414      531.001       606.72
  415      531.434       606.96
  416      531.868       607.42
  417      532.301       608.16
  418      532.734       608.46
  419      533.167       608.16
  420        533.6       607.88
  421      534.033       607.28
  422      534.466       606.44
  423      534.898       606.36
  424      535.331       606.88
  425      535.763        607.2
  426      536.196       607.98
  427      536.628       609.04
  428       537.06       609.34
  429      537.493       609.38
  430      537.925       609.66
  431      538.357        609.6
  432      538.788       608.94
  433       539.22       608.46
  434      539.652       608.28
  435      540.084       608.16
  436      540.515       607.94
  437      540.947       607.96
  438      541.378       608.54
  439      541.809        609.2
  440       542.24       609.54
  441      542.672        609.8
  442      543.103       609.92
  443      543.533        609.4
  444      543.964       608.36
  445      544.395       607.46
  446      544.826        607.1
  447      545.256       607.38
  448      545.687          608
  449      546.117       608.66
  450      546.547        609.3
  451      546.978       609.66
  452      547.408       609.46
  453      547.838       609.18
  454      548.268       609.02
  455      548.698       608.78
  456      549.127       608.48
  457      549.557       608.16
  458      549.987       608.28
  459      550.416       608.74
  460      550.846       608.88
  461      551.275       608.82
  462      551.704       609.22
  463      552.133       608.52
  464      552.562       607.02
  465      552.991        606.2
  466       553.42       605.98
  467      553.849       605.74
  468      554.278       606.26
  469      554.706        606.9
  470      555.135       606.86
  471      555.563       606.56
  472      555.991       606.34
  473       556.42       606.32
  474      556.848       607.06
  475      557.276        607.9
  476      557.704       608.68
  477      558.132       609.28
  478       558.56       609.12
  479      558.987       608.34
  480      559.415       608.02
  481      559.843       607.66
  482       560.27       607.42
  483      560.697       607.46
  484      561.125       607.92
  485      561.552       608.02
  486      561.979       607.38
  487      562.406       606.52
  488      562.833       605.94
  489       563.26       605.08
  490      563.686        604.7
  491      564.113        604.9
  492       564.54       604.58
  493      564.966       604.04
  494      565.392       603.76
  495      565.819       603.38
  496      566.245       603.18
  497      566.671       603.28
  498      567.097       603.26
  499      567.523        603.3
  500      567.949        603.5
  501      568.374       603.96
  502        568.8       604.82
  503      569.226       605.92
  504      569.651       606.96
  505      570.077       607.88
  506      570.502        608.1
  507      570.927       608.02
  508      571.352       607.72
  509      571.777       607.16
  510      572.202       606.56
  511      572.627       606.54
  512      573.052       606.56
  513      573.476       606.98
  514      573.901       607.32
  515      574.325        607.7
  516       574.75        608.2
  517      575.174       608.56
  518      575.598       608.46
  519      576.022       608.26
  520      576.446        607.8
  521       576.87       607.08
  522      577.294        606.6
  523      577.718        606.7
  524      578.142       606.86
  525      578.565       607.28
  526      578.989       608.08
  527      579.412       608.38
  528      579.835        608.8
  529      580.259       610.42
  530      580.682       612.42
  531      581.105       614.68
  532      581.528       617.98
  533      581.951        621.2
  534      582.373       623.96
  535      582.796       627.18
  536      583.219       630.18
  537      583.641       632.46
  538      584.063       634.04
  539      584.486       634.78
  540      584.908       635.38
  541       585.33       640.44
  542      585.752       661.54
  543      586.174       710.16
  544      586.596       788.16
  545      587.018       883.88
  546      587.439       967.56
  547      587.861      1010.88
  548      588.282       1004.8
  549      588.704       952.32
  550      589.125       869.36
  551      589.546       786.66
  552      589.967       724.68
  553      590.388        682.4
  554      590.809       655.08
  555       591.23       638.22
  556      591.651       627.98
  557      592.071       621.24
  558      592.492       616.74
  559      592.912       613.96
  560      593.333        612.5
  561      593.753       611.74
  562      594.173       610.88
  563      594.593       609.96
  564      595.013       609.68
  565      595.433       610.08
  566      595.853       610.52
  567      596.273       611.04
  568      596.693       611.82
  569      597.112       612.68
  570      597.532       612.74
  571      597.951       612.28
  572       598.37       611.66
  573      598.789       610.84
  574      599.208        609.9
  575      599.627       609.06
  576      600.046       608.32
  577      600.465       608.02
  578      600.884       608.04
  579      601.303          608
  580      601.721        608.2
  581      602.139       608.44
  582      602.558       608.34
  583      602.976        608.3
  584      603.394       608.48
  585      603.812       608.16
  586       604.23        607.4
  587      604.648       607.12
  588      605.066       606.78
  589      605.484       606.26
  590      605.901        606.5
  591      606.319       607.48
  592      606.736       608.06
  593      607.154       608.16
  594      607.571        608.6
  595      607.988       608.78
  596      608.405       608.18
  597      608.822        607.5
  598      609.239       607.64
  599      609.656        607.8
  600      610.072       607.36
  601      610.489       606.98
  602      610.905        607.2
  603      611.322       607.58
  604      611.738       607.46
  605      612.154        607.5
  606       612.57       607.86
  607      612.986       608.02
  608      613.402       607.32
  609      613.818        606.6
  610      614.234       606.36
