scansci Spectrometer Data File
--- Measurement Setting ---
Type: Sample Spectrum
Date: Mon Oct 16 17:57:22 2023
User: (Reserved by scansci)
Serial: (Reserved by scansci)
Channel: No. 11
Integration Time: 1
Average: 10
Boxcar: 2
Electrical Dark: No-corrected
Time Normalize: (Reserved by scansci)
Dual-beam: (Reserved by scansci)
Reference Ch: (Reserved by scansci)
--- Measurement Data ---
Pixel   Wavelength   Intensity
    0        162.5        638.1
    1      162.985        638.3
    2      163.469       638.02
    3      163.954       637.86
    4      164.439        636.3
    5      164.923       634.74
    6      165.408       633.72
    7      165.892       633.02
    8      166.377       632.84
    9      166.861       633.18
   10      167.345       633.34
   11       167.83        633.5
   12      168.314       633.62
   13      168.798       633.42
   14      169.282       633.26
   15      169.766       632.98
   16       170.25        632.6
   17      170.734       632.34
   18      171.218       632.28
   19      171.702       632.64
   20      172.185        632.8
   21      172.669       632.32
   22      173.153       631.66
   23      173.636       631.28
   24       174.12       631.14
   25      174.603       631.44
   26      175.087       632.22
   27       175.57       633.16
   28      176.053        634.2
   29      176.537       634.94
   30       177.02          635
   31      177.503        634.6
   32      177.986        634.1
   33      178.469        633.3
   34      178.952       632.48
   35      179.435       632.16
   36      179.918        631.9
   37      180.401       631.88
   38      180.884        632.1
   39      181.366       632.92
   40      181.849        633.6
   41      182.332        633.8
   42      182.814       633.78
   43      183.297       633.72
   44      183.779       632.88
   45      184.262        632.1
   46      184.744       632.04
   47      185.226       632.36
   48      185.708       632.66
   49      186.191       632.94
   50      186.673       633.14
   51      187.155       633.62
   52      187.637       633.86
   53      188.119       633.46
   54        188.6       632.94
   55      189.082       632.46
   56      189.564       631.56
   57      190.046       630.46
   58      190.527        629.7
   59      191.009       629.84
   60      191.491       630.04
   61      191.972       630.46
   62      192.454       631.64
   63      192.935       632.62
   64      193.416       632.94
   65      193.897       633.66
   66      194.379       634.18
   67       194.86       634.14
   68      195.341        634.8
   69      195.822       635.74
   70      196.303       635.54
   71      196.784       635.18
   72      197.265       634.84
   73      197.746       634.14
   74      198.226        633.9
   75      198.707       634.68
   76      199.188       635.64
   77      199.668       636.22
   78      200.149       636.64
   79      200.629          636
   80       201.11       634.58
   81       201.59       633.48
   82       202.07       632.84
   83       202.55       631.94
   84      203.031        631.9
   85      203.511       632.72
   86      203.991       633.44
   87      204.471       633.44
   88      204.951       633.34
   89      205.431       632.64
   90       205.91       631.34
   91       206.39       630.24
   92       206.87       629.74
   93      207.349       629.54
   94      207.829        629.8
   95      208.309       630.74
   96      208.788       631.48
   97      209.267       632.02
   98      209.747       632.08
   99      210.226       631.92
  100      210.705       631.44
  101      211.185        630.9
  102      211.664       631.08
  103      212.143       631.96
  104      212.622       633.34
  105      213.101       634.66
  106      213.579       635.38
  107      214.058       634.92
  108      214.537        634.1
  109      215.016       633.32
  110      215.494       633.28
  111      215.973       633.68
  112      216.452        634.4
  113       216.93       635.58
  114      217.408       636.14
  115      217.887       635.42
  116      218.365       634.78
  117      218.843       634.76
  118      219.321       634.38
  119      219.799          634
  120      220.278       634.26
  121      220.755       634.56
  122      221.233       634.42
  123      221.711       634.02
  124      222.189       633.52
  125      222.667       632.68
  126      223.144       631.92
  127      223.622       631.58
  128        224.1        631.5
  129      224.577        631.5
  130      225.055       631.92
  131      225.532       632.44
  132      226.009       632.38
  133      226.486        632.2
  134      226.964        632.6
  135      227.441       633.68
  136      227.918       634.74
  137      228.395       635.56
  138      228.872       636.46
  139      229.349       636.78
  140      229.826       636.18
  141      230.302       635.54
  142      230.779       634.88
  143      231.256       634.36
  144      231.732       634.44
  145      232.209       634.46
  146      232.685       634.06
  147      233.162       634.28
  148      233.638       634.44
  149      234.114       633.86
  150       234.59       633.34
  151      235.066       633.14
  152      235.543       632.78
  153      236.019       632.46
  154      236.495       632.34
  155       236.97       632.22
  156      237.446       631.88
  157      237.922       631.32
  158      238.398       630.98
  159      238.873       631.06
  160      239.349       631.16
  161      239.824       631.48
  162        240.3       632.24
  163      240.775       633.28
  164      241.251       634.18
  165      241.726       634.74
  166      242.201       634.84
  167      242.676       634.68
  168      243.151       634.16
  169      243.626       633.72
  170      244.101       633.64
  171      244.576       633.78
  172      245.051       633.78
  173      245.526       633.64
  174          246        633.2
  175      246.475       633.06
  176       246.95       633.36
  177      247.424       633.86
  178      247.899       634.58
  179      248.373       635.62
  180      248.847       636.42
  181      249.321        636.4
  182      249.796       636.02
  183       250.27        635.4
  184      250.744       634.56
  185      251.218       633.42
  186      251.692       632.72
  187      252.166       632.42
  188      252.639       632.06
  189      253.113        631.7
  190      253.587       632.02
  191       254.06        633.1
  192      254.534       634.24
  193      255.007       634.78
  194      255.481       635.06
  195      255.954       634.92
  196      256.427       633.84
  197      256.901       632.66
  198      257.374       632.22
  199      257.847       631.82
  200       258.32       631.06
  201      258.793       630.44
  202      259.266       629.82
  203      259.739       629.54
  204      260.211       629.36
  205      260.684       629.36
  206      261.157       629.76
  207      261.629       629.96
  208      262.102       629.72
  209      262.574       629.68
  210      263.046       630.16
  211      263.519        630.6
  212      263.991       631.32
  213      264.463       632.16
  214      264.935       632.84
  215      265.407       633.04
  216      265.879       632.86
  217      266.351        632.2
  218      266.823       631.62
  219      267.295       631.38
  220      267.766       631.28
  221      268.238       631.38
  222       268.71       631.58
  223      269.181        631.5
  224      269.653       630.84
  225      270.124       630.02
  226      270.595       629.58
  227      271.066       629.64
  228      271.538       629.84
  229      272.009       630.42
  230       272.48       631.22
  231      272.951       631.68
  232      273.422       631.76
  233      273.892       631.42
  234      274.363       630.66
  235      274.834        630.2
  236      275.305       629.86
  237      275.775       630.32
  238      276.246        631.5
  239      276.716       632.32
  240      277.186       633.18
  241      277.657        634.1
  242      278.127       634.54
  243      278.597       634.48
  244      279.067       634.16
  245      279.537       632.84
  246      280.007       631.44
  247      280.477       630.56
  248      280.947       629.82
  249      281.417       629.92
  250      281.886       630.88
  251      282.356       631.88
  252      282.825        632.2
  253      283.295       632.78
  254      283.764        633.3
  255      284.234       632.92
  256      284.703       632.42
  257      285.172       632.48
  258      285.641       632.64
  259       286.11       632.98
  260      286.579       633.74
  261      287.048        634.1
  262      287.517       633.68
  263      287.986       633.12
  264      288.454        632.5
  265      288.923       631.84
  266      289.392       631.88
  267       289.86       632.22
  268      290.329       632.18
  269      290.797       631.58
  270      291.265       631.06
  271      291.734       630.32
  272      292.202       629.78
  273       292.67       629.58
  274      293.138        629.8
  275      293.606       630.64
  276      294.074       631.62
  277      294.541        632.2
  278      295.009       632.74
  279      295.477       633.38
  280      295.944       633.04
  281      296.412        632.4
  282      296.879       632.36
  283      297.347        632.4
  284      297.814       632.08
  285      298.281       632.16
  286      298.749       632.42
  287      299.216        631.8
  288      299.683       631.14
  289       300.15       631.04
  290      300.616       631.16
  291      301.083       631.56
  292       301.55       632.48
  293      302.017       632.98
  294      302.483       633.04
  295       302.95       633.32
  296      303.416       633.22
  297      303.883       632.86
  298      304.349        632.8
  299      304.815       632.88
  300      305.281       632.74
  301      305.748       632.58
  302      306.214        632.4
  303       306.68        632.2
  304      307.146       632.54
  305      307.611       633.36
  306      308.077       634.26
  307      308.543       635.42
  308      309.008       636.36
  309      309.474       636.32
  310      309.939       635.48
  311      310.405        634.3
  312       310.87       633.14
  313      311.335       632.34
  314        311.8        631.8
  315      312.266        631.8
  316      312.731       632.36
  317      313.196       632.96
  318       313.66       633.28
  319      314.125       633.94
  320       314.59          634
  321      315.055       633.76
  322      315.519       633.96
  323      315.984       633.94
  324      316.448       633.22
  325      316.913       632.56
  326      317.377       631.84
  327      317.841       630.74
  328      318.305       630.56
  329      318.769       630.84
  330      319.233       631.34
  331      319.697       632.06
  332      320.161       632.44
  333      320.625       632.38
  334      321.089       632.28
  335      321.552       631.84
  336      322.016       630.74
  337      322.479       629.98
  338      322.943       629.16
  339      323.406        628.4
  340      323.869       627.92
  341      324.333       627.76
  342      324.796       627.56
  343      325.259       627.36
  344      325.722       627.42
  345      326.185       627.88
  346      326.647        629.1
  347       327.11       630.26
  348      327.573        630.9
  349      328.035       631.02
  350      328.498       630.64
  351       328.96       629.42
  352      329.423       628.34
  353      329.885       628.22
  354      330.347       628.64
  355       330.81       629.36
  356      331.272       630.56
  357      331.734       631.52
  358      332.196       631.78
  359      332.657        632.1
  360      333.119       632.46
  361      333.581       632.96
  362      334.043       633.86
  363      334.504       634.64
  364      334.966       634.74
  365      335.427        634.7
  366      335.888       634.34
  367       336.35        633.7
  368      336.811       633.34
  369      337.272       633.56
  370      337.733       633.74
  371      338.194       633.68
  372      338.655       633.44
  373      339.115       632.68
  374      339.576       631.38
  375      340.037       629.88
  376      340.497       629.04
  377      340.958       628.32
  378      341.418        627.6
  379      341.879       627.66
  380      342.339        628.6
  381      342.799        629.2
  382      343.259       629.66
  383      343.719       630.68
  384      344.179          631
  385      344.639       630.32
  386      345.099       629.54
  387      345.559        628.9
  388      346.018       628.36
  389      346.478       628.56
  390      346.937       629.34
  391      347.397       630.06
  392      347.856       630.56
  393      348.315       631.18
  394      348.774       631.22
  395      349.234       630.92
  396      349.693       630.82
  397      350.152       630.98
  398       350.61       631.02
  399      351.069       631.24
  400      351.528       632.02
  401      351.987       632.74
  402      352.445       633.16
  403      352.904       632.64
  404      353.362       631.92
  405       353.82       631.44
  406      354.279       631.24
  407      354.737       631.24
  408      355.195       631.42
  409      355.653       631.38
  410      356.111       630.98
  411      356.569       630.64
  412      357.027       630.58
  413      357.484       631.12
  414      357.942       631.52
  415      358.399       631.74
  416      358.857        631.9
  417      359.314       631.84
  418      359.772       631.96
  419      360.229       632.68
  420      360.686       632.84
  421      361.143        632.6
  422        361.6       632.44
  423      362.057       631.92
  424      362.514        631.6
  425      362.971       631.64
  426      363.427       631.48
  427      363.884        631.3
  428       364.34       631.74
  429      364.797        632.3
  430      365.253       633.46
  431      365.709        634.7
  432      366.166       634.98
  433      366.622       634.42
  434      367.078       633.74
  435      367.534        632.7
  436       367.99        631.7
  437      368.445       631.54
  438      368.901        631.7
  439      369.357       631.56
  440      369.812       630.94
  441      370.268        630.4
  442      370.723       630.06
  443      371.179       630.04
  444      371.634        630.3
  445      372.089       631.04
  446      372.544       631.64
  447      372.999       632.06
  448      373.454       632.08
  449      373.909       631.62
  450      374.364       631.22
  451      374.818       630.82
  452      375.273       630.58
  453      375.727        631.2
  454      376.182       631.92
  455      376.636        631.7
  456       377.09       631.32
  457      377.545       631.38
  458      377.999       631.48
  459      378.453       631.86
  460      378.907        633.1
  461      379.361       634.56
  462      379.814       634.78
  463      380.268       634.52
  464      380.722       634.42
  465      381.175       633.58
  466      381.629       632.36
  467      382.082       631.44
  468      382.535       630.12
  469      382.989       629.24
  470      383.442       629.92
  471      383.895        631.3
  472      384.348       632.64
  473      384.801       634.14
  474      385.253       635.18
  475      385.706       636.04
  476      386.159       638.24
  477      386.611       643.28
  478      387.064       651.52
  479      387.516       662.46
  480      387.968       673.82
  481      388.421       682.66
  482      388.873       686.62
  483      389.325       684.68
  484      389.777       677.56
  485      390.229       667.48
  486      390.681       657.16
  487      391.132       648.42
  488      391.584       642.16
  489      392.035       638.24
  490      392.487       635.94
  491      392.938       634.74
  492       393.39       634.16
  493      393.841       633.72
  494      394.292       633.28
  495      394.743       633.72
  496      395.194       634.54
  497      395.645       635.58
  498      396.096       636.18
  499      396.546       636.34
  500      396.997       635.94
  501      397.448        635.3
  502      397.898        634.7
  503      398.349       634.58
  504      398.799       634.44
  505      399.249       633.92
  506      399.699       633.44
  507      400.149       632.96
  508      400.599       632.54
  509      401.049       632.82
  510      401.499       633.38
  511      401.949       633.54
  512      402.398       633.56
  513      402.848       633.54
  514      403.297       633.54
  515      403.747       633.92
  516      404.196        634.6
  517      404.645        635.5
  518      405.094       636.22
  519      405.543       636.42
  520      405.992       636.02
  521      406.441       635.24
  522       406.89       634.48
  523      407.339          634
  524      407.787       633.82
  525      408.236       633.98
  526      408.684       634.06
  527      409.132       633.88
  528      409.581       633.64
  529      410.029       633.08
  530      410.477       632.28
  531      410.925       631.76
  532      411.373       631.54
  533      411.821       632.24
  534      412.269        633.8
  535      412.716       634.96
  536      413.164       635.54
  537      413.611       635.54
  538      414.059        634.4
  539      414.506       632.34
  540      414.953        630.6
  541        415.4       629.64
  542      415.847       629.28
  543      416.294       629.18
  544      416.741       629.18
  545      417.188       629.64
  546      417.635       630.06
  547      418.081       630.28
  548      418.528        631.1
  549      418.974       632.42
  550      419.421       633.24
  551      419.867       634.16
  552      420.313        634.9
  553      420.759       634.88
  554      421.205       634.18
  555      421.651       633.76
  556      422.097       633.64
  557      422.543       633.78
  558      422.989       634.12
  559      423.434       634.74
  560       423.88        634.9
  561      424.325       634.46
  562       424.77       633.98
  563      425.216        633.5
  564      425.661       632.84
  565      426.106       632.22
  566      426.551       632.04
  567      426.996        632.1
  568       427.44       632.24
  569      427.885       632.58
  570       428.33       632.64
  571      428.774       631.86
  572      429.219       630.88
  573      429.663       630.06
  574      430.107       629.54
  575      430.551       629.58
  576      430.996       629.98
  577       431.44       630.86
  578      431.883        631.7
  579      432.327       631.72
  580      432.771          632
  581      433.215       632.76
  582      433.658       632.96
  583      434.102       632.52
  584      434.545        632.5
  585      434.988       632.04
  586      435.431        631.6
  587      435.875       631.86
  588      436.318       632.68
  589      436.761       633.06
  590      437.203       633.24
  591      437.646        632.9
  592      438.089        632.1
  593      438.531       631.36
  594      438.974       631.04
  595      439.416       631.34
  596      439.859       632.06
  597      440.301       632.24
  598      440.743       631.88
  599      441.185       631.48
  600      441.627       630.84
  601      442.069       630.08
  602       442.51       629.38
  603      442.952        629.4
  604      443.394       630.12
  605      443.835       630.54
  606      444.277       630.72
  607      444.718       632.44
  608      445.159       635.38
  609        445.6       639.58
  610      446.041          646
