scansci Spectrometer Data File
--- Measurement Setting ---
Type: Sample Spectrum
Date: Mon Oct 16 16:07:59 2023
User: (Reserved by scansci)
Serial: (Reserved by scansci)
Channel: No. 11
Integration Time: 1
Average: 10
Boxcar: 2
Electrical Dark: No-corrected
Time Normalize: (Reserved by scansci)
Dual-beam: (Reserved by scansci)
Reference Ch: (Reserved by scansci)
--- Measurement Data ---
Pixel   Wavelength   Intensity
    0        162.5      572.233
    1      162.985      572.375
    2      163.469       572.22
    3      163.954        572.1
    4      164.439       571.84
    5      164.923       571.64
    6      165.408        571.1
    7      165.892       570.54
    8      166.377       570.46
    9      166.861       570.62
   10      167.345       570.64
   11       167.83       571.08
   12      168.314       571.94
   13      168.798       572.06
   14      169.282       571.56
   15      169.766       570.96
   16       170.25       570.36
   17      170.734       569.96
   18      171.218       570.02
   19      171.702       570.74
   20      172.185       571.44
   21      172.669       572.02
   22      173.153       572.56
   23      173.636       572.84
   24       174.12       572.12
   25      174.603       571.32
   26      175.087       570.48
   27       175.57       569.36
   28      176.053       568.58
   29      176.537       568.46
   30       177.02        568.8
   31      177.503       569.32
   32      177.986       569.44
   33      178.469       568.98
   34      178.952       568.86
   35      179.435       569.16
   36      179.918       569.02
   37      180.401       568.96
   38      180.884       569.38
   39      181.366       569.92
   40      181.849       569.76
   41      182.332       569.48
   42      182.814       569.84
   43      183.297       570.36
   44      183.779       570.34
   45      184.262        570.9
   46      184.744       572.04
   47      185.226       572.32
   48      185.708       572.24
   49      186.191        572.5
   50      186.673        572.3
   51      187.155       572.28
   52      187.637       572.94
   53      188.119       573.26
   54        188.6       573.02
   55      189.082       572.96
   56      189.564       573.04
   57      190.046       572.58
   58      190.527       572.16
   59      191.009       572.16
   60      191.491          572
   61      191.972       571.62
   62      192.454       571.56
   63      192.935       571.52
   64      193.416        571.7
   65      193.897       571.96
   66      194.379          572
   67       194.86       571.76
   68      195.341        571.3
   69      195.822        570.3
   70      196.303       569.02
   71      196.784       567.54
   72      197.265       566.34
   73      197.746       565.84
   74      198.226       566.04
   75      198.707       566.44
   76      199.188       567.24
   77      199.668       568.16
   78      200.149       568.94
   79      200.629        569.2
   80       201.11       569.34
   81       201.59       569.28
   82       202.07       569.48
   83       202.55       569.96
   84      203.031       570.54
   85      203.511        570.8
   86      203.991        571.1
   87      204.471       571.06
   88      204.951       570.76
   89      205.431        570.2
   90       205.91          570
   91       206.39       569.78
   92       206.87        569.4
   93      207.349       569.02
   94      207.829       569.16
   95      208.309       569.56
   96      208.788       569.74
   97      209.267       569.62
   98      209.747        569.5
   99      210.226        569.3
  100      210.705       568.94
  101      211.185       569.08
  102      211.664       569.72
  103      212.143       570.36
  104      212.622       570.64
  105      213.101       571.14
  106      213.579       571.58
  107      214.058       572.04
  108      214.537        572.6
  109      215.016        573.3
  110      215.494       573.66
  111      215.973       574.06
  112      216.452       574.38
  113       216.93       573.86
  114      217.408       572.92
  115      217.887       572.14
  116      218.365       571.66
  117      218.843          571
  118      219.321       570.72
  119      219.799       571.26
  120      220.278       571.66
  121      220.755        571.2
  122      221.233       570.74
  123      221.711       570.44
  124      222.189       569.46
  125      222.667       568.32
  126      223.144        567.5
  127      223.622       566.98
  128        224.1       567.06
  129      224.577       567.84
  130      225.055       568.76
  131      225.532        569.6
  132      226.009       570.96
  133      226.486       571.76
  134      226.964        571.9
  135      227.441       571.66
  136      227.918       571.48
  137      228.395       570.96
  138      228.872       570.26
  139      229.349        569.5
  140      229.826       569.52
  141      230.302       569.94
  142      230.779       570.48
  143      231.256       571.32
  144      231.732       572.26
  145      232.209       572.38
  146      232.685       571.34
  147      233.162       569.64
  148      233.638       567.96
  149      234.114        566.4
  150       234.59       565.88
  151      235.066        566.5
  152      235.543       567.52
  153      236.019       568.16
  154      236.495       568.94
  155       236.97       569.72
  156      237.446        570.3
  157      237.922       570.48
  158      238.398       570.84
  159      238.873       570.64
  160      239.349       569.34
  161      239.824       567.84
  162        240.3       566.86
  163      240.775       566.04
  164      241.251          566
  165      241.726       566.58
  166      242.201        567.6
  167      242.676       568.44
  168      243.151        569.4
  169      243.626       570.22
  170      244.101       570.94
  171      244.576       570.92
  172      245.051        570.5
  173      245.526       569.78
  174          246       569.48
  175      246.475       569.16
  176       246.95       569.24
  177      247.424       570.04
  178      247.899        570.7
  179      248.373       570.64
  180      248.847        571.1
  181      249.321       571.12
  182      249.796       570.58
  183       250.27       570.34
  184      250.744        569.9
  185      251.218       568.78
  186      251.692        567.7
  187      252.166       566.36
  188      252.639       565.02
  189      253.113       564.58
  190      253.587       565.08
  191       254.06       566.16
  192      254.534       567.54
  193      255.007       568.94
  194      255.481        570.1
  195      255.954       570.28
  196      256.427       569.48
  197      256.901        568.1
  198      257.374       567.08
  199      257.847       565.86
  200       258.32          565
  201      258.793        565.4
  202      259.266          567
  203      259.739       568.54
  204      260.211       570.24
  205      260.684       571.42
  206      261.157       571.92
  207      261.629       571.52
  208      262.102       570.72
  209      262.574        569.8
  210      263.046       569.64
  211      263.519       570.26
  212      263.991       571.52
  213      264.463       572.84
  214      264.935       574.22
  215      265.407       575.28
  216      265.879       575.14
  217      266.351        574.3
  218      266.823       573.36
  219      267.295       571.88
  220      267.766       570.08
  221      268.238       569.06
  222       268.71       568.74
  223      269.181        568.5
  224      269.653       568.62
  225      270.124        569.6
  226      270.595       570.62
  227      271.066        570.9
  228      271.538       571.18
  229      272.009       571.86
  230       272.48       571.82
  231      272.951       571.26
  232      273.422       570.74
  233      273.892        569.8
  234      274.363       568.64
  235      274.834       567.76
  236      275.305       567.24
  237      275.775       566.86
  238      276.246       566.94
  239      276.716       567.46
  240      277.186        567.7
  241      277.657        567.8
  242      278.127       568.44
  243      278.597       568.94
  244      279.067       568.76
  245      279.537       568.84
  246      280.007       569.06
  247      280.477       568.98
  248      280.947        569.3
  249      281.417       569.54
  250      281.886       569.22
  251      282.356        568.7
  252      282.825       568.46
  253      283.295       568.68
  254      283.764        569.6
  255      284.234        570.3
  256      284.703       570.66
  257      285.172       571.06
  258      285.641       570.42
  259       286.11       568.74
  260      286.579        567.9
  261      287.048       567.36
  262      287.517       566.54
  263      287.986       566.26
  264      288.454       566.68
  265      288.923       567.48
  266      289.392       568.38
  267       289.86       569.04
  268      290.329       569.38
  269      290.797       569.48
  270      291.265          569
  271      291.734       568.38
  272      292.202          568
  273       292.67       567.62
  274      293.138       566.94
  275      293.606       565.96
  276      294.074       565.14
  277      294.541       564.84
  278      295.009       565.18
  279      295.477       566.32
  280      295.944          568
  281      296.412       569.74
  282      296.879       571.04
  283      297.347       571.68
  284      297.814       571.56
  285      298.281       571.16
  286      298.749       570.56
  287      299.216       569.74
  288      299.683       568.96
  289       300.15        568.4
  290      300.616        567.7
  291      301.083          567
  292       301.55       566.98
  293      302.017       567.42
  294      302.483        568.1
  295       302.95        568.8
  296      303.416       569.16
  297      303.883       568.86
  298      304.349       568.68
  299      304.815       568.24
  300      305.281        567.8
  301      305.748        568.2
  302      306.214       568.76
  303       306.68       568.96
  304      307.146       569.36
  305      307.611        569.1
  306      308.077       567.64
  307      308.543       566.26
  308      309.008       565.02
  309      309.474        563.9
  310      309.939          564
  311      310.405       565.42
  312       310.87       566.64
  313      311.335       567.56
  314        311.8       568.68
  315      312.266       569.18
  316      312.731       569.18
  317      313.196       569.58
  318       313.66       569.86
  319      314.125       569.68
  320       314.59        569.9
  321      315.055       569.54
  322      315.519       568.62
  323      315.984       568.52
  324      316.448       568.72
  325      316.913          569
  326      317.377       570.02
  327      317.841        571.2
  328      318.305          572
  329      318.769       572.46
  330      319.233       572.74
  331      319.697        572.9
  332      320.161       572.56
  333      320.625        571.8
  334      321.089       571.16
  335      321.552       570.56
  336      322.016       570.52
  337      322.479       570.96
  338      322.943        571.9
  339      323.406       572.78
  340      323.869       573.56
  341      324.333       573.44
  342      324.796       573.02
  343      325.259       572.06
  344      325.722       570.78
  345      326.185       569.08
  346      326.647       567.92
  347       327.11       567.28
  348      327.573       566.76
  349      328.035       566.34
  350      328.498       566.34
  351       328.96       566.78
  352      329.423       567.88
  353      329.885       569.12
  354      330.347       570.44
  355       330.81       571.42
  356      331.272        571.3
  357      331.734       570.24
  358      332.196       568.76
  359      332.657       567.88
  360      333.119       567.68
  361      333.581       567.88
  362      334.043       568.28
  363      334.504       568.96
  364      334.966       568.94
  365      335.427       568.06
  366      335.888       567.38
  367       336.35       567.06
  368      336.811       567.02
  369      337.272       567.46
  370      337.733       568.28
  371      338.194       568.46
  372      338.655       567.92
  373      339.115       567.84
  374      339.576       568.12
  375      340.037       568.66
  376      340.497       569.86
  377      340.958       571.56
  378      341.418       572.66
  379      341.879       572.96
  380      342.339       572.98
  381      342.799       572.44
  382      343.259       571.44
  383      343.719       570.54
  384      344.179          570
  385      344.639       569.56
  386      345.099       568.84
  387      345.559       567.86
  388      346.018       567.22
  389      346.478        566.9
  390      346.937        566.7
  391      347.397       567.14
  392      347.856       568.26
  393      348.315       568.42
  394      348.774        567.9
  395      349.234       567.64
  396      349.693       567.86
  397      350.152        568.5
  398       350.61        570.1
  399      351.069       572.06
  400      351.528       573.48
  401      351.987       574.04
  402      352.445        573.8
  403      352.904        572.7
  404      353.362        570.9
  405       353.82        569.4
  406      354.279       568.64
  407      354.737       567.86
  408      355.195        567.2
  409      355.653       567.84
  410      356.111       568.66
  411      356.569       569.28
  412      357.027       569.94
  413      357.484        570.4
  414      357.942       570.48
  415      358.399       570.56
  416      358.857       570.54
  417      359.314        570.6
  418      359.772       571.06
  419      360.229       571.18
  420      360.686       570.92
  421      361.143       570.64
  422        361.6       570.44
  423      362.057        570.5
  424      362.514       570.64
  425      362.971       570.82
  426      363.427       570.96
  427      363.884       570.96
  428       364.34       570.96
  429      364.797       571.14
  430      365.253       571.52
  431      365.709       571.94
  432      366.166       572.58
  433      366.622       573.08
  434      367.078        573.2
  435      367.534        572.9
  436       367.99       572.56
  437      368.445        572.2
  438      368.901       571.76
  439      369.357       571.42
  440      369.812       571.56
  441      370.268       571.68
  442      370.723       571.52
  443      371.179       571.16
  444      371.634       570.62
  445      372.089       570.04
  446      372.544       569.46
  447      372.999        569.4
  448      373.454       569.66
  449      373.909        570.3
  450      374.364       570.56
  451      374.818       570.68
  452      375.273       570.86
  453      375.727       570.88
  454      376.182       570.52
  455      376.636       570.26
  456       377.09       569.88
  457      377.545       568.92
  458      377.999       568.16
  459      378.453       567.56
  460      378.907       567.22
  461      379.361        567.6
  462      379.814       568.36
  463      380.268       569.16
  464      380.722       570.08
  465      381.175       571.02
  466      381.629       571.62
  467      382.082       572.28
  468      382.535       572.98
  469      382.989       573.68
  470      383.442       573.88
  471      383.895       573.68
  472      384.348       573.22
  473      384.801       572.36
  474      385.253       571.26
  475      385.706        570.1
  476      386.159       569.04
  477      386.611       568.22
  478      387.064       567.46
  479      387.516       567.32
  480      387.968       567.98
  481      388.421       568.34
  482      388.873       568.56
  483      389.325       568.82
  484      389.777       568.34
  485      390.229        567.8
  486      390.681       568.36
  487      391.132        568.9
  488      391.584       569.36
  489      392.035       569.86
  490      392.487       569.94
  491      392.938       569.76
  492       393.39        569.8
  493      393.841       570.18
  494      394.292       571.12
  495      394.743        572.3
  496      395.194       572.88
  497      395.645       573.08
  498      396.096       572.88
  499      396.546          572
  500      396.997       571.08
  501      397.448       571.08
  502      397.898       571.92
  503      398.349       573.02
  504      398.799       574.54
  505      399.249       575.32
  506      399.699       575.18
  507      400.149        574.2
  508      400.599        572.7
  509      401.049       571.18
  510      401.499       570.36
  511      401.949        569.8
  512      402.398       569.46
  513      402.848       569.86
  514      403.297       570.44
  515      403.747       570.74
  516      404.196       571.12
  517      404.645        571.6
  518      405.094       571.74
  519      405.543       571.76
  520      405.992       571.84
  521      406.441       571.46
  522       406.89       570.76
  523      407.339        570.4
  524      407.787       570.04
  525      408.236        569.9
  526      408.684       570.68
  527      409.132       571.92
  528      409.581       573.08
  529      410.029          574
  530      410.477       574.04
  531      410.925       573.32
  532      411.373       572.66
  533      411.821       572.06
  534      412.269       571.62
  535      412.716          572
  536      413.164       572.42
  537      413.611       572.16
  538      414.059       571.38
  539      414.506       570.56
  540      414.953       569.38
  541        415.4       568.18
  542      415.847       567.72
  543      416.294       567.44
  544      416.741        567.2
  545      417.188        566.9
  546      417.635       566.84
  547      418.081       566.62
  548      418.528        566.3
  549      418.974       566.46
  550      419.421       567.32
  551      419.867       567.72
  552      420.313       568.46
  553      420.759       569.98
  554      421.205       570.72
  555      421.651       570.82
  556      422.097       570.88
  557      422.543       570.18
  558      422.989        568.7
  559      423.434       567.86
  560       423.88       567.78
  561      424.325       568.62
  562       424.77        570.4
  563      425.216       574.02
  564      425.661       579.52
  565      426.106       586.12
  566      426.551       593.18
  567      426.996       599.96
  568       427.44       604.68
  569      427.885       605.64
  570       428.33       603.72
  571      428.774       600.14
  572      429.219       596.26
  573      429.663       594.24
  574      430.107       596.46
  575      430.551       602.72
  576      430.996       610.92
  577       431.44       619.18
  578      431.883       625.36
  579      432.327       626.62
  580      432.771       622.48
  581      433.215       615.16
  582      433.658       606.02
  583      434.102       596.78
  584      434.545        590.2
  585      434.988       587.26
  586      435.431       587.14
  587      435.875       589.44
  588      436.318       593.08
  589      436.761        596.2
  590      437.203        597.7
  591      437.646       598.04
  592      438.089       597.14
  593      438.531       594.64
  594      438.974       591.04
  595      439.416       587.56
  596      439.859       584.22
  597      440.301        580.6
  598      440.743        577.8
  599      441.185       575.88
  600      441.627       574.28
  601      442.069       572.84
  602       442.51       572.44
  603      442.952       572.22
  604      443.394       573.38
  605      443.835       576.06
  606      444.277       579.74
  607      444.718       584.04
  608      445.159       588.88
  609        445.6        593.3
  610      446.041        596.8
