scansci Spectrometer Data File
--- Measurement Setting ---
Type: Sample Spectrum
Date: Mon Oct 16 16:08:38 2023
User: (Reserved by scansci)
Serial: (Reserved by scansci)
Channel: No. 11
Integration Time: 1
Average: 10
Boxcar: 2
Electrical Dark: No-corrected
Time Normalize: (Reserved by scansci)
Dual-beam: (Reserved by scansci)
Reference Ch: (Reserved by scansci)
--- Measurement Data ---
Pixel   Wavelength   Intensity
    0        344.4        734.3
    1      344.867       734.35
    2      345.334       734.32
    3      345.801       734.28
    4      346.268       734.32
    5      346.735       734.36
    6      347.202       734.34
    7      347.669       734.38
    8      348.135        734.2
    9      348.602       733.82
   10      349.068       733.78
   11      349.535       734.02
   12      350.001       734.22
   13      350.467       734.72
   14      350.933       735.24
   15      351.399        735.1
   16      351.866       734.66
   17      352.331       734.26
   18      352.797        734.1
   19      353.263       734.42
   20      353.729        734.8
   21      354.194       735.12
   22       354.66        735.4
   23      355.126        735.2
   24      355.591       734.68
   25      356.056       734.56
   26      356.522       734.28
   27      356.987       734.06
   28      357.452       733.94
   29      357.917       733.82
   30      358.382       733.76
   31      358.847       733.84
   32      359.312       733.76
   33      359.776       734.14
   34      360.241       734.16
   35      360.706        733.5
   36       361.17       732.62
   37      361.634        732.4
   38      362.099        732.1
   39      362.563       731.88
   40      363.027       732.16
   41      363.491       732.88
   42      363.955       733.24
   43      364.419       733.38
   44      364.883       734.12
   45      365.347        735.2
   46      365.811       735.66
   47      366.274       735.44
   48      366.738       735.04
   49      367.201       734.26
   50      367.665       733.06
   51      368.128       732.14
   52      368.592        731.7
   53      369.055       731.48
   54      369.518       731.46
   55      369.981       731.68
   56      370.444       731.96
   57      370.907       732.38
   58       371.37       732.54
   59      371.832       732.12
   60      372.295       731.88
   61      372.757       732.24
   62       373.22       732.76
   63      373.682       733.98
   64      374.145        735.7
   65      374.607       736.88
   66      375.069       737.34
   67      375.531       737.32
   68      375.993       736.62
   69      376.455          736
   70      376.917       735.54
   71      377.379       734.96
   72      377.841        734.5
   73      378.302        734.2
   74      378.764        733.5
   75      379.225       732.82
   76      379.687       733.22
   77      380.148       734.06
   78      380.609       734.52
   79      381.071       735.36
   80      381.532       736.54
   81      381.993        736.4
   82      382.454       735.78
   83      382.915        735.6
   84      383.375       735.28
   85      383.836       734.58
   86      384.297       734.36
   87      384.757       734.62
   88      385.218        735.1
   89      385.678       735.66
   90      386.138       736.36
   91      386.599       737.18
   92      387.059       737.64
   93      387.519        737.7
   94      387.979       737.48
   95      388.439       736.82
   96      388.899       736.04
   97      389.358       735.48
   98      389.818       735.12
   99      390.278       735.14
  100      390.737        735.4
  101      391.197       735.96
  102      391.656       736.24
  103      392.115       736.22
  104      392.575       736.06
  105      393.034       735.46
  106      393.493       734.26
  107      393.952       733.46
  108      394.411       733.22
  109       394.87       732.78
  110      395.328       732.72
  111      395.787       733.28
  112      396.246       733.46
  113      396.704       733.02
  114      397.163       732.46
  115      397.621       732.26
  116      398.079       732.26
  117      398.537       732.34
  118      398.995       732.44
  119      399.454       732.62
  120      399.911       733.02
  121      400.369       733.32
  122      400.827       733.42
  123      401.285       733.66
  124      401.743       734.12
  125        402.2        734.1
  126      402.658       734.44
  127      403.115       735.28
  128      403.572       735.84
  129       404.03       736.42
  130      404.487        736.9
  131      404.944       736.48
  132      405.401       735.72
  133      405.858       735.26
  134      406.315        734.8
  135      406.771       734.74
  136      407.228       735.02
  137      407.685       735.42
  138      408.141       735.84
  139      408.598       735.98
  140      409.054       735.76
  141       409.51       735.26
  142      409.967       734.54
  143      410.423        733.7
  144      410.879        732.9
  145      411.335       732.18
  146      411.791       731.58
  147      412.246        731.5
  148      412.702       732.44
  149      413.158       733.58
  150      413.613       734.66
  151      414.069       736.04
  152      414.524       736.98
  153       414.98       736.72
  154      415.435        735.9
  155       415.89       735.06
  156      416.345          734
  157        416.8       733.18
  158      417.255       733.06
  159       417.71        733.4
  160      418.165       734.02
  161      418.619       734.94
  162      419.074       735.86
  163      419.529       735.94
  164      419.983       735.62
  165      420.437        735.4
  166      420.892       735.12
  167      421.346       734.72
  168        421.8       734.18
  169      422.254        733.5
  170      422.708       733.02
  171      423.162        732.7
  172      423.616       732.76
  173       424.07       733.98
  174      424.523       735.48
  175      424.977        735.8
  176       425.43       735.66
  177      425.884       735.02
  178      426.337       733.92
  179       426.79       733.06
  180      427.243       732.84
  181      427.697       732.92
  182       428.15       733.06
  183      428.602       733.54
  184      429.055       734.54
  185      429.508        735.9
  186      429.961       736.56
  187      430.413       736.94
  188      430.866        737.2
  189      431.318       737.24
  190      431.771        736.8
  191      432.223        736.4
  192      432.675       736.22
  193      433.127       735.98
  194      433.579       735.14
  195      434.031       734.78
  196      434.483       735.36
  197      434.935       735.86
  198      435.387        735.7
  199      435.838       735.82
  200       436.29       735.56
  201      436.741       734.78
  202      437.193       734.46
  203      437.644       734.78
  204      438.095       735.24
  205      438.546       735.96
  206      438.997        736.6
  207      439.448       736.74
  208      439.899       736.88
  209       440.35       736.82
  210      440.801        736.3
  211      441.251       735.28
  212      441.702       734.06
  213      442.152       732.92
  214      442.603       732.46
  215      443.053       732.54
  216      443.503        733.5
  217      443.954       735.04
  218      444.404       735.94
  219      444.854       735.78
  220      445.304       735.24
  221      445.753        734.4
  222      446.203       733.82
  223      446.653       733.86
  224      447.102       734.54
  225      447.552       735.54
  226      448.001       736.48
  227      448.451       736.64
  228        448.9       736.34
  229      449.349       736.16
  230      449.798       735.76
  231      450.247       734.92
  232      450.696       734.46
  233      451.145        734.9
  234      451.594        735.5
  235      452.042       736.24
  236      452.491       737.48
  237      452.939       738.14
  238      453.388        737.3
  239      453.836        735.7
  240      454.285        734.3
  241      454.733        733.3
  242      455.181        732.7
  243      455.629       732.66
  244      456.077        733.2
  245      456.525       733.48
  246      456.972       733.28
  247       457.42        733.1
  248      457.868       733.02
  249      458.315          733
  250      458.763       733.44
  251       459.21       733.76
  252      459.657       734.14
  253      460.104       734.66
  254      460.552        734.7
  255      460.999        734.1
  256      461.446        733.7
  257      461.892        733.1
  258      462.339        732.4
  259      462.786        732.1
  260      463.233       732.06
  261      463.679       732.52
  262      464.125       733.18
  263      464.572       733.68
  264      465.018       733.88
  265      465.464       733.92
  266       465.91       733.48
  267      466.356       733.22
  268      466.802       733.54
  269      467.248       733.84
  270      467.694        734.1
  271       468.14       734.22
  272      468.585       734.24
  273      469.031       734.18
  274      469.476        734.2
  275      469.922       734.36
  276      470.367       734.56
  277      470.812       734.66
  278      471.257       734.66
  279      471.702       734.62
  280      472.147        734.6
  281      472.592       734.48
  282      473.037       733.94
  283      473.482       733.24
  284      473.926       732.96
  285      474.371       732.74
  286      474.815       732.46
  287      475.259       732.82
  288      475.704       733.26
  289      476.148       733.44
  290      476.592        733.9
  291      477.036       734.56
  292       477.48       734.74
  293      477.924       735.02
  294      478.368       735.26
  295      478.811       734.94
  296      479.255       734.66
  297      479.698       734.96
  298      480.142       735.42
  299      480.585       735.96
  300      481.028       736.52
  301      481.472       736.94
  302      481.915       737.06
  303      482.358        736.8
  304      482.801       736.38
  305      483.244       736.26
  306      483.686       736.18
  307      484.129       735.82
  308      484.572       735.24
  309      485.014       734.82
  310      485.456       734.56
  311      485.899       734.56
  312      486.341       735.12
  313      486.783       736.08
  314      487.225       736.24
  315      487.667       735.76
  316      488.109        734.8
  317      488.551       733.68
  318      488.993       732.66
  319      489.434        732.5
  320      489.876       732.96
  321      490.318       733.92
  322      490.759       734.48
  323        491.2       734.74
  324      491.641          735
  325      492.083       735.46
  326      492.524       735.86
  327      492.965        736.3
  328      493.406       736.14
  329      493.846        735.4
  330      494.287       733.96
  331      494.728        732.2
  332      495.168       730.92
  333      495.609        730.8
  334      496.049       731.54
  335      496.489       732.64
  336       496.93       734.08
  337       497.37        735.5
  338       497.81       736.18
  339       498.25        736.3
  340       498.69       736.64
  341      499.129       737.24
  342      499.569       737.18
  343      500.009        736.9
  344      500.448       736.06
  345      500.888        734.5
  346      501.327       732.36
  347      501.766        730.6
  348      502.206       730.02
  349      502.645       730.14
  350      503.084       730.86
  351      503.523       732.16
  352      503.961       733.36
  353        504.4       733.94
  354      504.839       734.34
  355      505.277       734.64
  356      505.716       734.78
  357      506.154       734.86
  358      506.593       734.88
  359      507.031          735
  360      507.469       734.92
  361      507.907        734.8
  362      508.345       734.82
  363      508.783        734.3
  364      509.221        733.5
  365      509.659       732.58
  366      510.096       731.94
  367      510.534        731.8
  368      510.971        732.4
  369      511.409       733.14
  370      511.846       733.66
  371      512.283       733.56
  372       512.72       733.12
  373      513.157       732.64
  374      513.594       732.32
  375      514.031       732.68
  376      514.468       733.68
  377      514.905       734.48
  378      515.341       734.64
  379      515.778       734.56
  380      516.214       734.38
  381       516.65       733.92
  382      517.087       733.42
  383      517.523       733.06
  384      517.959       732.82
  385      518.395       732.52
  386      518.831       731.86
  387      519.267       731.48
  388      519.702        731.7
  389      520.138        732.3
  390      520.574       732.94
  391      521.009        733.7
  392      521.444       734.52
  393       521.88       734.82
  394      522.315        734.7
  395       522.75       734.54
  396      523.185       734.36
  397       523.62       734.06
  398      524.055       734.02
  399       524.49       734.34
  400      524.924        734.7
  401      525.359       735.08
  402      525.794       735.54
  403      526.228       736.26
  404      526.662        736.6
  405      527.097       736.32
  406      527.531       735.76
  407      527.965       734.98
  408      528.399       733.82
  409      528.833        733.1
  410      529.267       732.84
  411        529.7       732.88
  412      530.134       732.86
  413      530.568       732.54
  414      531.001       731.92
  415      531.434       731.54
  416      531.868       731.52
  417      532.301       731.94
  418      532.734       732.38
  419      533.167       732.62
  420        533.6        732.6
  421      534.033       732.24
  422      534.466        731.6
  423      534.898       731.44
  424      535.331       731.68
  425      535.763       732.16
  426      536.196       733.02
  427      536.628       733.94
  428       537.06       734.32
  429      537.493       734.38
  430      537.925       734.26
  431      538.357       733.24
  432      538.788       732.24
  433       539.22       732.06
  434      539.652       732.18
  435      540.084       732.02
  436      540.515       732.02
  437      540.947       732.28
  438      541.378       732.38
  439      541.809       732.42
  440       542.24       733.06
  441      542.672       733.98
  442      543.103       734.26
  443      543.533       734.52
  444      543.964       735.24
  445      544.395        735.9
  446      544.826        736.5
  447      545.256       737.08
  448      545.687       737.06
  449      546.117       736.14
  450      546.547        734.7
  451      546.978       733.46
  452      547.408       733.16
  453      547.838       733.66
  454      548.268       734.58
  455      548.698       735.44
  456      549.127       736.32
  457      549.557        736.3
  458      549.987       735.22
  459      550.416       733.54
  460      550.846          732
  461      551.275       730.98
  462      551.704       730.46
  463      552.133       730.48
  464      552.562       731.38
  465      552.991       732.76
  466       553.42          734
  467      553.849        735.5
  468      554.278       737.34
  469      554.706       738.94
  470      555.135       741.06
  471      555.563       744.66
  472      555.991       750.44
  473       556.42       757.44
  474      556.848       763.28
  475      557.276       766.32
  476      557.704        766.2
  477      558.132       762.42
  478       558.56       756.32
  479      558.987       750.94
  480      559.415       746.78
  481      559.843       743.36
  482       560.27       740.42
  483      560.697        738.2
  484      561.125       736.68
  485      561.552       736.08
  486      561.979       735.78
  487      562.406       736.04
  488      562.833        736.5
  489       563.26       736.56
  490      563.686       736.62
  491      564.113       736.82
  492       564.54       737.04
  493      564.966       737.36
  494      565.392       737.26
  495      565.819       736.32
  496      566.245       735.28
  497      566.671       733.92
  498      567.097       732.18
  499      567.523        731.3
  500      567.949       731.24
  501      568.374       731.22
  502        568.8       731.36
  503      569.226       732.02
  504      569.651       732.94
  505      570.077       733.94
  506      570.502        735.1
  507      570.927       736.48
  508      571.352       737.56
  509      571.777        737.7
  510      572.202        737.6
  511      572.627       737.48
  512      573.052       736.82
  513      573.476        735.6
  514      573.901       734.74
  515      574.325       734.08
  516       574.75        733.3
  517      575.174       733.02
  518      575.598       733.04
  519      576.022       733.02
  520      576.446       733.18
  521       576.87        733.4
  522      577.294        733.6
  523      577.718       733.92
  524      578.142          734
  525      578.565       733.64
  526      578.989       733.66
  527      579.412        734.2
  528      579.835       734.84
  529      580.259        735.1
  530      580.682       734.94
  531      581.105       734.66
  532      581.528       734.04
  533      581.951       733.44
  534      582.373        733.5
  535      582.796       734.36
  536      583.219        735.2
  537      583.641       735.82
  538      584.063       736.36
  539      584.486       737.26
  540      584.908       738.66
  541       585.33       742.02
  542      585.752       749.72
  543      586.174        761.9
  544      586.596       776.62
  545      587.018        789.6
  546      587.439        797.5
  547      587.861       797.96
  548      588.282       790.64
  549      588.704       778.06
  550      589.125       764.82
  551      589.546        753.7
  552      589.967       745.48
  553      590.388       740.86
  554      590.809       738.74
  555       591.23       738.18
  556      591.651       737.92
  557      592.071       737.52
  558      592.492        736.9
  559      592.912        735.9
  560      593.333       734.56
  561      593.753       733.76
  562      594.173       733.78
  563      594.593       733.92
  564      595.013       733.98
  565      595.433        734.3
  566      595.853       734.46
  567      596.273        733.9
  568      596.693       733.34
  569      597.112        733.2
  570      597.532       733.26
  571      597.951       733.54
  572       598.37       734.36
  573      598.789       735.66
  574      599.208       736.78
  575      599.627       737.06
  576      600.046       736.72
  577      600.465       736.36
  578      600.884       735.96
  579      601.303        735.5
  580      601.721        735.5
  581      602.139       736.02
  582      602.558       736.34
  583      602.976       736.06
  584      603.394        735.9
  585      603.812       735.74
  586       604.23       735.48
  587      604.648        735.3
  588      605.066       735.42
  589      605.484       735.64
  590      605.901       735.96
  591      606.319        736.2
  592      606.736       736.28
  593      607.154       736.32
  594      607.571       736.22
  595      607.988       735.86
  596      608.405       735.18
  597      608.822       734.76
  598      609.239       734.34
  599      609.656       734.06
  600      610.072       734.46
  601      610.489       734.76
  602      610.905        734.1
  603      611.322       733.32
  604      611.738       732.76
  605      612.154       732.04
  606       612.57       731.52
  607      612.986       731.48
  608      613.402       731.76
  609      613.818       731.82
  610      614.234       731.64
