scansci Spectrometer Data File
--- Measurement Setting ---
Type: Sample Spectrum
Date: Mon Oct 16 18:09:52 2023
User: (Reserved by scansci)
Serial: (Reserved by scansci)
Channel: No. 11
Integration Time: 1
Average: 10
Boxcar: 2
Electrical Dark: No-corrected
Time Normalize: (Reserved by scansci)
Dual-beam: (Reserved by scansci)
Reference Ch: (Reserved by scansci)
--- Measurement Data ---
Pixel   Wavelength   Intensity
    0        344.4      685.733
    1      344.867      684.975
    2      345.334       683.76
    3      345.801       682.54
    4      346.268       681.08
    5      346.735       679.76
    6      347.202       679.08
    7      347.669        679.4
    8      348.135        679.9
    9      348.602       680.44
   10      349.068        680.9
   11      349.535       681.08
   12      350.001       681.22
   13      350.467       681.28
   14      350.933       680.66
   15      351.399       679.96
   16      351.866       680.06
   17      352.331        680.3
   18      352.797       680.26
   19      353.263       680.52
   20      353.729       681.18
   21      354.194       681.96
   22       354.66       682.82
   23      355.126       684.14
   24      355.591       685.36
   25      356.056       685.76
   26      356.522        685.2
   27      356.987       683.78
   28      357.452       682.04
   29      357.917       680.64
   30      358.382       680.32
   31      358.847       680.68
   32      359.312       681.12
   33      359.776       681.46
   34      360.241       681.62
   35      360.706       681.16
   36       361.17        680.2
   37      361.634       679.52
   38      362.099       679.52
   39      362.563       679.74
   40      363.027       679.48
   41      363.491       679.52
   42      363.955       679.86
   43      364.419       680.14
   44      364.883       680.22
   45      365.347       680.62
   46      365.811       681.22
   47      366.274          682
   48      366.738       682.64
   49      367.201       682.64
   50      367.665       682.36
   51      368.128       682.28
   52      368.592       681.78
   53      369.055        681.1
   54      369.518       681.18
   55      369.981       681.66
   56      370.444       681.48
   57      370.907       681.38
   58       371.37       681.62
   59      371.832        682.1
   60      372.295       682.54
   61      372.757       682.76
   62       373.22        682.8
   63      373.682        682.4
   64      374.145        681.4
   65      374.607       680.44
   66      375.069       679.94
   67      375.531       679.84
   68      375.993       680.36
   69      376.455       681.08
   70      376.917       682.04
   71      377.379       683.16
   72      377.841       683.76
   73      378.302       683.76
   74      378.764       683.98
   75      379.225       683.94
   76      379.687       683.68
   77      380.148       683.64
   78      380.609       683.38
   79      381.071       682.62
   80      381.532       681.94
   81      381.993       681.34
   82      382.454       680.76
   83      382.915        680.8
   84      383.375       680.92
   85      383.836       680.84
   86      384.297       681.24
   87      384.757       681.62
   88      385.218        681.1
   89      385.678       680.64
   90      386.138        680.6
   91      386.599        680.4
   92      387.059       680.12
   93      387.519       680.34
   94      387.979       680.82
   95      388.439       681.32
   96      388.899       681.66
   97      389.358        682.2
   98      389.818        682.6
   99      390.278       682.58
  100      390.737        682.4
  101      391.197       682.38
  102      391.656        682.1
  103      392.115       682.14
  104      392.575       682.76
  105      393.034       683.02
  106      393.493       682.92
  107      393.952       683.06
  108      394.411        683.2
  109       394.87       683.04
  110      395.328        683.3
  111      395.787       683.82
  112      396.246       684.16
  113      396.704       683.96
  114      397.163       683.48
  115      397.621        682.4
  116      398.079       681.14
  117      398.537        680.1
  118      398.995       679.46
  119      399.454        679.1
  120      399.911       678.88
  121      400.369        678.8
  122      400.827       678.96
  123      401.285       679.48
  124      401.743       680.52
  125        402.2        681.9
  126      402.658        682.8
  127      403.115          683
  128      403.572       682.52
  129       404.03       681.16
  130      404.487       680.06
  131      404.944       679.78
  132      405.401       680.18
  133      405.858          681
  134      406.315       682.08
  135      406.771       682.72
  136      407.228       682.48
  137      407.685       681.86
  138      408.141       681.64
  139      408.598        681.5
  140      409.054       681.42
  141       409.51       681.74
  142      409.967       682.04
  143      410.423       682.12
  144      410.879       682.42
  145      411.335       682.64
  146      411.791       682.88
  147      412.246        682.9
  148      412.702       682.14
  149      413.158        681.4
  150      413.613       681.12
  151      414.069       681.12
  152      414.524       681.86
  153       414.98       683.08
  154      415.435       683.94
  155       415.89        684.4
  156      416.345       684.68
  157        416.8       684.22
  158      417.255       683.76
  159       417.71       684.14
  160      418.165       684.92
  161      418.619       685.56
  162      419.074       685.64
  163      419.529       685.68
  164      419.983       685.22
  165      420.437       684.34
  166      420.892       683.08
  167      421.346       682.94
  168        421.8       683.34
  169      422.254       683.56
  170      422.708       683.78
  171      423.162        683.9
  172      423.616       683.54
  173       424.07       683.12
  174      424.523        682.7
  175      424.977       681.94
  176       425.43       682.04
  177      425.884        682.7
  178      426.337       682.82
  179       426.79       683.02
  180      427.243       683.64
  181      427.697       683.92
  182       428.15       683.32
  183      428.602       682.64
  184      429.055       681.86
  185      429.508       681.18
  186      429.961       680.06
  187      430.413       679.62
  188      430.866       679.38
  189      431.318       679.42
  190      431.771       679.56
  191      432.223       680.14
  192      432.675        680.7
  193      433.127       681.36
  194      433.579       681.42
  195      434.031       681.16
  196      434.483       681.28
  197      434.935       681.32
  198      435.387        681.2
  199      435.838       681.26
  200       436.29       681.04
  201      436.741       680.28
  202      437.193       679.62
  203      437.644        679.2
  204      438.095       679.26
  205      438.546       679.88
  206      438.997        680.4
  207      439.448       680.88
  208      439.899       681.36
  209       440.35        681.3
  210      440.801       680.88
  211      441.251       680.82
  212      441.702        680.9
  213      442.152       680.92
  214      442.603        680.9
  215      443.053          681
  216      443.503       681.18
  217      443.954       681.54
  218      444.404       681.84
  219      444.854        682.3
  220      445.304       682.62
  221      445.753       682.52
  222      446.203       681.86
  223      446.653       681.52
  224      447.102       681.68
  225      447.552       682.14
  226      448.001        682.6
  227      448.451        683.3
  228        448.9       683.56
  229      449.349       683.46
  230      449.798       683.48
  231      450.247       683.58
  232      450.696       683.24
  233      451.145       683.16
  234      451.594          683
  235      452.042       682.54
  236      452.491       682.04
  237      452.939       681.68
  238      453.388       680.82
  239      453.836       680.28
  240      454.285       679.98
  241      454.733       679.54
  242      455.181        679.4
  243      455.629        679.8
  244      456.077       680.12
  245      456.525       680.22
  246      456.972       680.18
  247       457.42       680.16
  248      457.868        679.9
  249      458.315       679.28
  250      458.763       679.04
  251       459.21       679.36
  252      459.657       679.48
  253      460.104       679.68
  254      460.552        680.2
  255      460.999       680.24
  256      461.446       680.04
  257      461.892       680.28
  258      462.339       680.58
  259      462.786       680.76
  260      463.233        681.3
  261      463.679       681.86
  262      464.125       681.94
  263      464.572       681.72
  264      465.018        681.3
  265      465.464        680.8
  266       465.91       680.44
  267      466.356       680.22
  268      466.802       680.04
  269      467.248        679.9
  270      467.694       679.98
  271       468.14       680.16
  272      468.585       679.78
  273      469.031        679.3
  274      469.476       679.48
  275      469.922       679.94
  276      470.367       680.12
  277      470.812        680.7
  278      471.257       681.74
  279      471.702       682.32
  280      472.147       681.98
  281      472.592       681.72
  282      473.037       681.46
  283      473.482       681.24
  284      473.926       681.28
  285      474.371       681.56
  286      474.815       681.92
  287      475.259        682.5
  288      475.704       682.74
  289      476.148        682.7
  290      476.592       682.68
  291      477.036       682.44
  292       477.48       681.76
  293      477.924       681.08
  294      478.368        680.4
  295      478.811       679.46
  296      479.255       678.54
  297      479.698       678.38
  298      480.142       678.96
  299      480.585       679.18
  300      481.028       679.52
  301      481.472       680.22
  302      481.915       680.58
  303      482.358       680.62
  304      482.801       680.82
  305      483.244       680.98
  306      483.686       681.02
  307      484.129       681.32
  308      484.572       681.14
  309      485.014       680.92
  310      485.456       681.36
  311      485.899       681.86
  312      486.341       681.86
  313      486.783       682.06
  314      487.225        682.1
  315      487.667       681.52
  316      488.109       680.74
  317      488.551       680.48
  318      488.993        680.5
  319      489.434       680.86
  320      489.876       681.42
  321      490.318       682.34
  322      490.759       682.84
  323        491.2       682.94
  324      491.641        682.8
  325      492.083       682.32
  326      492.524       681.96
  327      492.965       682.06
  328      493.406       682.18
  329      493.846       682.72
  330      494.287       684.12
  331      494.728       685.74
  332      495.168       687.46
  333      495.609       689.18
  334      496.049       690.58
  335      496.489        691.2
  336       496.93       691.14
  337       497.37        690.6
  338       497.81        690.2
  339       498.25       690.02
  340       498.69       689.78
  341      499.129       689.96
  342      499.569        690.6
  343      500.009        691.3
  344      500.448        692.3
  345      500.888        693.7
  346      501.327       694.46
  347      501.766       694.42
  348      502.206          694
  349      502.645        693.4
  350      503.084       692.68
  351      503.523       692.52
  352      503.961       692.92
  353        504.4       693.12
  354      504.839       693.26
  355      505.277       694.12
  356      505.716        694.5
  357      506.154       693.86
  358      506.593       693.66
  359      507.031       693.32
  360      507.469       692.16
  361      507.907       691.62
  362      508.345       692.42
  363      508.783       693.24
  364      509.221       694.04
  365      509.659       695.44
  366      510.096       696.86
  367      510.534       697.62
  368      510.971       698.06
  369      511.409       698.34
  370      511.846       698.08
  371      512.283       697.26
  372       512.72       696.56
  373      513.157       696.38
  374      513.594       696.44
  375      514.031       696.56
  376      514.468       697.02
  377      514.905       697.72
  378      515.341        697.6
  379      515.778        697.2
  380      516.214       697.06
  381       516.65       697.22
  382      517.087       697.82
  383      517.523       699.24
  384      517.959       700.92
  385      518.395       702.38
  386      518.831       703.36
  387      519.267       703.42
  388      519.702        702.7
  389      520.138          702
  390      520.574       701.68
  391      521.009       701.32
  392      521.444        701.4
  393       521.88       702.42
  394      522.315       703.58
  395       522.75       704.16
  396      523.185       704.86
  397       523.62       705.58
  398      524.055       705.94
  399       524.49       706.42
  400      524.924       707.26
  401      525.359       708.26
  402      525.794        709.3
  403      526.228        710.2
  404      526.662       710.54
  405      527.097        710.6
  406      527.531        710.4
  407      527.965       710.32
  408      528.399        710.5
  409      528.833       711.16
  410      529.267       711.94
  411        529.7       712.72
  412      530.134        713.1
  413      530.568       713.54
  414      531.001       714.04
  415      531.434       714.78
  416      531.868        715.7
  417      532.301       716.38
  418      532.734       716.78
  419      533.167       717.22
  420        533.6       718.18
  421      534.033       719.34
  422      534.466       720.58
  423      534.898       722.04
  424      535.331       723.76
  425      535.763       725.66
  426      536.196       727.96
  427      536.628       731.52
  428       537.06        736.2
  429      537.493       740.96
  430      537.925       745.92
  431      538.357        751.8
  432      538.788       758.62
  433       539.22       766.72
  434      539.652       778.06
  435      540.084       793.44
  436      540.515       812.46
  437      540.947       834.74
  438      541.378          858
  439      541.809        879.3
  440       542.24       896.58
  441      542.672        908.8
  442      543.103        915.7
  443      543.533       919.42
  444      543.964        925.8
  445      544.395        949.1
  446      544.826      1006.24
  447      545.256      1098.46
  448      545.687      1204.12
  449      546.117      1285.36
  450      546.547       1314.2
  451      546.978      1283.36
  452      547.408      1200.98
  453      547.838       1094.3
  454      548.268       999.96
  455      548.698       934.82
  456      549.127        891.8
  457      549.557       862.36
  458      549.987        841.2
  459      550.416       826.04
  460      550.846       814.58
  461      551.275       805.18
  462      551.704       797.72
  463      552.133       792.26
  464      552.562       787.66
  465      552.991        783.2
  466       553.42       778.96
  467      553.849       774.74
  468      554.278       769.78
  469      554.706        764.7
  470      555.135        760.6
  471      555.563        757.7
  472      555.991       755.48
  473       556.42       753.76
  474      556.848       752.64
  475      557.276        751.9
  476      557.704        751.1
  477      558.132       750.54
  478       558.56       750.58
  479      558.987       750.32
  480      559.415       749.52
  481      559.843        748.9
  482       560.27       748.44
  483      560.697       747.88
  484      561.125       747.56
  485      561.552        747.6
  486      561.979       747.52
  487      562.406       747.34
  488      562.833        746.9
  489       563.26       746.72
  490      563.686       747.26
  491      564.113       747.72
  492       564.54       748.24
  493      564.966       749.76
  494      565.392       751.42
  495      565.819       752.16
  496      566.245       752.92
  497      566.671       754.02
  498      567.097       754.82
  499      567.523        755.7
  500      567.949       756.86
  501      568.374        757.6
  502        568.8       758.18
  503      569.226       759.16
  504      569.651       759.66
  505      570.077       759.94
  506      570.502       760.74
  507      570.927       761.42
  508      571.352        761.5
  509      571.777       762.04
  510      572.202       763.26
  511      572.627       764.66
  512      573.052       766.08
  513      573.476       767.68
  514      573.901       770.06
  515      574.325        772.6
  516       574.75       776.08
  517      575.174       783.96
  518      575.598       800.58
  519      576.022       827.42
  520      576.446       861.84
  521       576.87          895
  522      577.294       920.78
  523      577.718       939.64
  524      578.142       952.84
  525      578.565       961.52
  526      578.989       966.16
  527      579.412       964.78
  528      579.835       953.76
  529      580.259       931.06
  530      580.682       901.18
  531      581.105       873.58
  532      581.528       853.78
  533      581.951       841.26
  534      582.373       835.68
  535      582.796       834.96
  536      583.219       836.82
  537      583.641        839.8
  538      584.063       843.04
  539      584.486       845.24
  540      584.908       845.78
  541       585.33       845.06
  542      585.752       844.32
  543      586.174       844.06
  544      586.596       845.08
  545      587.018       846.88
  546      587.439        848.2
  547      587.861        848.1
  548      588.282       846.16
  549      588.704       841.94
  550      589.125       836.28
  551      589.546       831.28
  552      589.967       827.56
  553      590.388       825.02
  554      590.809        824.2
  555       591.23       824.56
  556      591.651        825.5
  557      592.071       827.46
  558      592.492       830.52
  559      592.912        833.6
  560      593.333       835.54
  561      593.753       835.54
  562      594.173       832.88
  563      594.593       827.86
  564      595.013       821.48
  565      595.433       815.06
  566      595.853        809.5
  567      596.273        805.5
  568      596.693       802.34
  569      597.112        799.7
  570      597.532       798.46
  571      597.951       798.54
  572       598.37       799.52
  573      598.789        801.5
  574      599.208       803.72
  575      599.627       805.12
  576      600.046       805.66
  577      600.465        804.8
  578      600.884       802.74
  579      601.303       800.26
  580      601.721       797.44
  581      602.139       794.18
  582      602.558        791.6
  583      602.976        790.1
  584      603.394       788.76
  585      603.812        787.8
  586       604.23       787.84
  587      604.648       788.48
  588      605.066       789.38
  589      605.484        791.1
  590      605.901       793.44
  591      606.319       796.14
  592      606.736       798.96
  593      607.154       802.02
  594      607.571       806.26
  595      607.988       812.04
  596      608.405       820.14
  597      608.822       832.38
  598      609.239       852.46
  599      609.656       885.82
  600      610.072       936.66
  601      610.489      1004.16
  602      610.905      1078.54
  603      611.322      1143.14
  604      611.738       1183.8
  605      612.154       1193.6
  606       612.57      1172.56
  607      612.986      1129.98
  608      613.402      1081.14
  609      613.818      1035.96
  610      614.234        998.2
