scansci Spectrometer Data File
--- Measurement Setting ---
Type: Sample Spectrum
Date: Mon Oct 16 18:08:54 2023
User: (Reserved by scansci)
Serial: (Reserved by scansci)
Channel: No. 11
Integration Time: 1
Average: 10
Boxcar: 2
Electrical Dark: No-corrected
Time Normalize: (Reserved by scansci)
Dual-beam: (Reserved by scansci)
Reference Ch: (Reserved by scansci)
--- Measurement Data ---
Pixel   Wavelength   Intensity
    0        162.5      587.167
    1      162.985      587.575
    2      163.469        587.9
    3      163.954       588.64
    4      164.439       589.06
    5      164.923       589.08
    6      165.408       589.08
    7      165.892       589.16
    8      166.377       589.26
    9      166.861        589.3
   10      167.345        589.1
   11       167.83        588.7
   12      168.314       587.54
   13      168.798       586.02
   14      169.282       585.14
   15      169.766       584.78
   16       170.25       584.68
   17      170.734       585.68
   18      171.218       587.16
   19      171.702        587.9
   20      172.185       588.62
   21      172.669        589.2
   22      173.153       588.74
   23      173.636        588.3
   24       174.12       588.42
   25      174.603       588.44
   26      175.087       588.94
   27       175.57       589.86
   28      176.053        590.5
   29      176.537       591.32
   30       177.02        592.2
   31      177.503       592.74
   32      177.986       593.68
   33      178.469       595.08
   34      178.952        595.8
   35      179.435       595.92
   36      179.918       595.32
   37      180.401       594.56
   38      180.884        593.9
   39      181.366       593.72
   40      181.849        594.5
   41      182.332       596.28
   42      182.814       598.06
   43      183.297       599.42
   44      183.779       600.64
   45      184.262       601.24
   46      184.744       600.98
   47      185.226       600.32
   48      185.708       599.36
   49      186.191        598.1
   50      186.673       597.22
   51      187.155       597.18
   52      187.637       597.48
   53      188.119       597.56
   54        188.6       597.68
   55      189.082       598.24
   56      189.564        598.7
   57      190.046       599.06
   58      190.527       599.82
   59      191.009       600.46
   60      191.491       600.28
   61      191.972       599.78
   62      192.454       599.58
   63      192.935        599.4
   64      193.416        599.5
   65      193.897       599.56
   66      194.379       599.68
   67       194.86       600.08
   68      195.341       600.36
   69      195.822       600.22
   70      196.303        600.9
   71      196.784       601.82
   72      197.265       602.24
   73      197.746       602.76
   74      198.226        603.8
   75      198.707       604.16
   76      199.188       603.66
   77      199.668        602.8
   78      200.149       602.06
   79      200.629       601.42
   80       201.11       601.04
   81       201.59       601.46
   82       202.07          602
   83       202.55        602.5
   84      203.031       602.64
   85      203.511       602.18
   86      203.991       602.18
   87      204.471       602.38
   88      204.951       602.36
   89      205.431        602.8
   90       205.91       603.92
   91       206.39       604.22
   92       206.87        604.2
   93      207.349       604.18
   94      207.829        603.6
   95      208.309       602.76
   96      208.788       602.18
   97      209.267       601.88
   98      209.747       601.64
   99      210.226       602.08
  100      210.705       602.66
  101      211.185       602.66
  102      211.664        602.3
  103      212.143       601.92
  104      212.622        601.3
  105      213.101       600.74
  106      213.579        600.5
  107      214.058       600.54
  108      214.537       600.76
  109      215.016          601
  110      215.494       601.14
  111      215.973        600.6
  112      216.452       599.96
  113       216.93       599.84
  114      217.408       599.68
  115      217.887       599.06
  116      218.365       598.98
  117      218.843       598.98
  118      219.321       598.22
  119      219.799          598
  120      220.278       598.28
  121      220.755       598.14
  122      221.233       598.02
  123      221.711       598.36
  124      222.189       598.08
  125      222.667        597.5
  126      223.144       597.56
  127      223.622       597.88
  128        224.1       598.36
  129      224.577       598.62
  130      225.055       599.08
  131      225.532       599.94
  132      226.009       600.38
  133      226.486       599.76
  134      226.964       598.76
  135      227.441       597.74
  136      227.918       596.82
  137      228.395        596.5
  138      228.872       596.98
  139      229.349        597.9
  140      229.826        599.1
  141      230.302       599.96
  142      230.779        600.4
  143      231.256       600.74
  144      231.732       600.98
  145      232.209       600.76
  146      232.685       600.34
  147      233.162       599.64
  148      233.638       598.62
  149      234.114       598.06
  150       234.59       598.02
  151      235.066       598.32
  152      235.543       598.76
  153      236.019       599.02
  154      236.495       598.62
  155       236.97       597.82
  156      237.446       596.88
  157      237.922          596
  158      238.398       595.74
  159      238.873       596.66
  160      239.349       597.84
  161      239.824       598.26
  162        240.3       598.52
  163      240.775          599
  164      241.251       598.82
  165      241.726       597.74
  166      242.201       597.24
  167      242.676       597.52
  168      243.151       597.68
  169      243.626       597.36
  170      244.101       597.28
  171      244.576       597.76
  172      245.051       598.04
  173      245.526       597.94
  174          246       597.76
  175      246.475       597.68
  176       246.95       597.38
  177      247.424        597.3
  178      247.899        597.4
  179      248.373        597.5
  180      248.847       597.68
  181      249.321       597.66
  182      249.796       597.36
  183       250.27        597.6
  184      250.744       598.82
  185      251.218       599.88
  186      251.692       600.82
  187      252.166       601.38
  188      252.639       601.22
  189      253.113       600.52
  190      253.587        599.8
  191       254.06       598.86
  192      254.534       597.62
  193      255.007        596.6
  194      255.481       596.18
  195      255.954       596.58
  196      256.427       597.04
  197      256.901       597.58
  198      257.374       598.04
  199      257.847       597.58
  200       258.32       596.44
  201      258.793        595.6
  202      259.266       595.22
  203      259.739       594.76
  204      260.211       594.36
  205      260.684       594.42
  206      261.157       594.66
  207      261.629       595.04
  208      262.102       595.94
  209      262.574       597.36
  210      263.046       598.44
  211      263.519       599.14
  212      263.991       599.36
  213      264.463       598.96
  214      264.935        598.3
  215      265.407       597.76
  216      265.879       597.26
  217      266.351       596.82
  218      266.823        596.5
  219      267.295          596
  220      267.766       595.72
  221      268.238       595.82
  222       268.71       596.18
  223      269.181       596.36
  224      269.653       596.46
  225      270.124       596.08
  226      270.595        595.7
  227      271.066       595.48
  228      271.538       595.16
  229      272.009        594.6
  230       272.48       594.14
  231      272.951       593.86
  232      273.422        593.6
  233      273.892       593.54
  234      274.363       594.08
  235      274.834        595.2
  236      275.305       595.54
  237      275.775       595.76
  238      276.246        596.3
  239      276.716       596.68
  240      277.186        596.6
  241      277.657       597.08
  242      278.127       597.98
  243      278.597       598.66
  244      279.067       599.12
  245      279.537       599.26
  246      280.007       598.82
  247      280.477       597.92
  248      280.947       596.72
  249      281.417        595.2
  250      281.886       594.22
  251      282.356       593.84
  252      282.825       593.26
  253      283.295       593.02
  254      283.764       593.58
  255      284.234        594.1
  256      284.703       594.18
  257      285.172       594.54
  258      285.641       594.74
  259       286.11        594.6
  260      286.579       594.44
  261      287.048        594.5
  262      287.517       594.08
  263      287.986       593.66
  264      288.454       593.96
  265      288.923       594.34
  266      289.392       594.66
  267       289.86        595.4
  268      290.329       596.34
  269      290.797       597.16
  270      291.265       598.06
  271      291.734       598.82
  272      292.202       599.34
  273       292.67       599.18
  274      293.138       598.34
  275      293.606       597.22
  276      294.074       595.84
  277      294.541       594.78
  278      295.009       594.96
  279      295.477        595.6
  280      295.944       595.98
  281      296.412       596.56
  282      296.879       597.26
  283      297.347       597.26
  284      297.814       596.94
  285      298.281       597.08
  286      298.749       596.94
  287      299.216       596.16
  288      299.683        596.1
  289       300.15       596.92
  290      300.616       597.36
  291      301.083        597.1
  292       301.55       596.76
  293      302.017       596.08
  294      302.483       594.32
  295       302.95       592.96
  296      303.416       593.48
  297      303.883       594.48
  298      304.349        594.9
  299      304.815       595.24
  300      305.281       595.18
  301      305.748       594.14
  302      306.214       592.78
  303       306.68       591.44
  304      307.146       590.58
  305      307.611       590.04
  306      308.077        589.6
  307      308.543        589.6
  308      309.008       590.06
  309      309.474          591
  310      309.939       592.48
  311      310.405       594.98
  312       310.87       598.32
  313      311.335       602.16
  314        311.8       605.84
  315      312.266       608.72
  316      312.731       609.86
  317      313.196       609.16
  318       313.66       606.78
  319      314.125       603.38
  320       314.59       600.08
  321      315.055       597.34
  322      315.519       595.08
  323      315.984       593.48
  324      316.448       592.22
  325      316.913       591.04
  326      317.377       590.08
  327      317.841       589.24
  328      318.305       588.98
  329      318.769       589.14
  330      319.233       589.18
  331      319.697       589.56
  332      320.161       590.42
  333      320.625        591.2
  334      321.089        592.2
  335      321.552       593.36
  336      322.016        593.8
  337      322.479       593.78
  338      322.943        593.2
  339      323.406       591.76
  340      323.869       590.86
  341      324.333       590.84
  342      324.796       590.86
  343      325.259       590.82
  344      325.722       590.96
  345      326.185       590.72
  346      326.647       590.22
  347       327.11       590.16
  348      327.573        590.4
  349      328.035       590.38
  350      328.498       590.06
  351       328.96       589.56
  352      329.423        589.1
  353      329.885       589.08
  354      330.347       590.18
  355       330.81       591.32
  356      331.272        592.2
  357      331.734       592.74
  358      332.196       592.86
  359      332.657       592.44
  360      333.119        592.4
  361      333.581       592.86
  362      334.043       593.54
  363      334.504        594.4
  364      334.966        595.2
  365      335.427       595.26
  366      335.888        595.1
  367       336.35       595.14
  368      336.811       594.82
  369      337.272       593.92
  370      337.733       593.22
  371      338.194       593.18
  372      338.655        592.9
  373      339.115       592.54
  374      339.576       592.98
  375      340.037       593.74
  376      340.497       593.76
  377      340.958       593.42
  378      341.418       593.36
  379      341.879       592.94
  380      342.339       592.44
  381      342.799        592.7
  382      343.259       593.64
  383      343.719       594.52
  384      344.179        595.2
  385      344.639        595.9
  386      345.099       596.32
  387      345.559       596.54
  388      346.018       596.86
  389      346.478       597.06
  390      346.937       596.78
  391      347.397       596.02
  392      347.856       595.02
  393      348.315       594.64
  394      348.774        595.1
  395      349.234       595.84
  396      349.693        596.5
  397      350.152       597.62
  398       350.61       598.54
  399      351.069        598.8
  400      351.528       598.66
  401      351.987       598.74
  402      352.445       598.72
  403      352.904       598.22
  404      353.362       597.94
  405       353.82       598.44
  406      354.279       598.98
  407      354.737       599.18
  408      355.195       599.62
  409      355.653       600.42
  410      356.111       601.34
  411      356.569        602.1
  412      357.027       602.36
  413      357.484       601.94
  414      357.942       601.36
  415      358.399       601.18
  416      358.857       601.64
  417      359.314       602.76
  418      359.772        604.3
  419      360.229       605.56
  420      360.686       605.94
  421      361.143       606.14
  422        361.6       607.12
  423      362.057        611.9
  424      362.514       626.76
  425      362.971       657.84
  426      363.427       707.16
  427      363.884       770.88
  428       364.34       836.46
  429      364.797        887.3
  430      365.253        910.2
  431      365.709       900.02
  432      366.166        862.7
  433      366.622       810.96
  434      367.078       757.82
  435      367.534        712.9
  436       367.99       680.36
  437      368.445       658.08
  438      368.901       643.92
  439      369.357       635.34
  440      369.812       629.94
  441      370.268       626.48
  442      370.723       624.48
  443      371.179       623.46
  444      371.634       623.32
  445      372.089       623.96
  446      372.544       625.02
  447      372.999       626.06
  448      373.454       627.12
  449      373.909       628.32
  450      374.364       629.58
  451      374.818        631.1
  452      375.273       633.08
  453      375.727        635.4
  454      376.182       638.12
  455      376.636       641.12
  456       377.09       643.88
  457      377.545       647.06
  458      377.999       650.78
  459      378.453       653.94
  460      378.907       656.62
  461      379.361       659.76
  462      379.814        662.6
  463      380.268        664.8
  464      380.722       667.26
  465      381.175       669.74
  466      381.629       671.54
  467      382.082       673.06
  468      382.535       674.66
  469      382.989        676.3
  470      383.442       678.28
  471      383.895       680.68
  472      384.348        683.2
  473      384.801       685.32
  474      385.253        687.2
  475      385.706        689.2
  476      386.159       691.48
  477      386.611       693.84
  478      387.064       696.56
  479      387.516       699.54
  480      387.968       702.28
  481      388.421       705.44
  482      388.873       709.92
  483      389.325       714.44
  484      389.777        718.6
  485      390.229       723.18
  486      390.681       726.88
  487      391.132       728.84
  488      391.584       730.38
  489      392.035       731.88
  490      392.487       733.02
  491      392.938       734.78
  492       393.39       737.38
  493      393.841       740.68
  494      394.292       744.34
  495      394.743       747.84
  496      395.194       751.38
  497      395.645       755.18
  498      396.096       758.76
  499      396.546       762.52
  500      396.997       767.42
  501      397.448       772.66
  502      397.898       777.38
  503      398.349       782.08
  504      398.799        787.1
  505      399.249       791.82
  506      399.699       796.24
  507      400.149       801.36
  508      400.599        807.9
  509      401.049       819.62
  510      401.499       856.82
  511      401.949       976.14
  512      402.398       1265.2
  513      402.848      1785.08
  514      403.297      2491.34
  515      403.747      3239.32
  516      404.196       3850.6
  517      404.645      4146.58
  518      405.094       4034.6
  519      405.543      3596.54
  520      405.992      3013.02
  521      406.441      2440.86
  522       406.89      1985.34
  523      407.339       1680.3
  524      407.787      1484.22
  525      408.236         1343
  526      408.684       1228.2
  527      409.132       1131.9
  528      409.581      1055.86
  529      410.029      1001.54
  530      410.477       967.56
  531      410.925       948.48
  532      411.373       937.86
  533      411.821        931.4
  534      412.269        928.5
  535      412.716       928.98
  536      413.164       931.56
  537      413.611       935.46
  538      414.059       940.28
  539      414.506        945.9
  540      414.953       950.96
  541        415.4        954.6
  542      415.847       957.48
  543      416.294        960.5
  544      416.741       962.76
  545      417.188       965.04
  546      417.635       969.42
  547      418.081       975.86
  548      418.528          983
  549      418.974       991.06
  550      419.421        999.7
  551      419.867      1008.72
  552      420.313      1018.56
  553      420.759      1030.18
  554      421.205      1043.24
  555      421.651      1056.76
  556      422.097      1070.18
  557      422.543      1083.98
  558      422.989      1097.52
  559      423.434      1110.58
  560       423.88      1123.82
  561      424.325      1137.42
  562       424.77       1150.8
  563      425.216      1164.34
  564      425.661      1179.54
  565      426.106      1196.32
  566      426.551       1214.4
  567      426.996      1233.76
  568       427.44      1254.16
  569      427.885      1274.96
  570       428.33      1296.42
  571      428.774       1319.1
  572      429.219      1342.14
  573      429.663      1364.66
  574      430.107      1387.72
  575      430.551       1410.9
  576      430.996      1434.08
  577       431.44      1460.92
  578      431.883      1496.68
  579      432.327      1557.16
  580      432.771      1728.94
  581      433.215       2230.9
  582      433.658      3368.38
  583      434.102      5316.86
  584      434.545       7893.8
  585      434.988      10615.6
  586      435.431      12860.4
  587      435.875      13939.4
  588      436.318      13528.1
  589      436.761      11900.6
  590      437.203      9647.62
  591      437.646      7310.18
  592      438.089       5356.2
  593      438.531      3986.12
  594      438.974      3123.08
  595      439.416      2594.54
  596      439.859       2275.2
  597      440.301      2084.26
  598      440.743      1969.38
  599      441.185      1902.76
  600      441.627      1866.74
  601      442.069      1846.42
  602       442.51       1833.1
  603      442.952      1822.36
  604      443.394      1811.94
  605      443.835       1800.5
  606      444.277       1789.3
  607      444.718      1780.28
  608      445.159      1775.98
  609        445.6      1777.08
  610      446.041      1781.56
