scansci Spectrometer Data File
--- Measurement Setting ---
Type: Sample Spectrum
Date: Mon Oct 16 15:49:01 2023
User: (Reserved by scansci)
Serial: (Reserved by scansci)
Channel: No. 11
Integration Time: 1
Average: 10
Boxcar: 2
Electrical Dark: No-corrected
Time Normalize: (Reserved by scansci)
Dual-beam: (Reserved by scansci)
Reference Ch: (Reserved by scansci)
--- Measurement Data ---
Pixel   Wavelength   Intensity
    0        344.4      702.833
    1      344.867          703
    2      345.334       703.28
    3      345.801        703.5
    4      346.268        703.8
    5      346.735       703.94
    6      347.202        703.6
    7      347.669       703.04
    8      348.135       701.98
    9      348.602        700.6
   10      349.068       700.38
   11      349.535        700.8
   12      350.001       700.86
   13      350.467       701.42
   14      350.933       702.08
   15      351.399       702.04
   16      351.866       701.48
   17      352.331       701.38
   18      352.797       701.36
   19      353.263       701.62
   20      353.729       701.32
   21      354.194        701.1
   22       354.66       701.04
   23      355.126        700.8
   24      355.591       700.76
   25      356.056       701.52
   26      356.522        702.5
   27      356.987       703.04
   28      357.452       703.26
   29      357.917       703.24
   30      358.382       703.12
   31      358.847       702.96
   32      359.312       703.24
   33      359.776       703.84
   34      360.241        704.4
   35      360.706       704.56
   36       361.17       704.42
   37      361.634       704.38
   38      362.099       704.28
   39      362.563        703.6
   40      363.027       703.28
   41      363.491       703.44
   42      363.955       703.36
   43      364.419       703.28
   44      364.883       702.98
   45      365.347          702
   46      365.811       701.16
   47      366.274        700.4
   48      366.738       699.64
   49      367.201       699.86
   50      367.665       700.84
   51      368.128       701.32
   52      368.592       701.44
   53      369.055       702.12
   54      369.518       702.98
   55      369.981       703.18
   56      370.444       703.16
   57      370.907        703.3
   58       371.37       702.86
   59      371.832          702
   60      372.295       701.34
   61      372.757       701.04
   62       373.22       700.96
   63      373.682       701.08
   64      374.145       701.32
   65      374.607       701.76
   66      375.069       701.92
   67      375.531        701.5
   68      375.993        701.2
   69      376.455       701.14
   70      376.917       701.38
   71      377.379        701.9
   72      377.841        702.5
   73      378.302       702.84
   74      378.764       702.76
   75      379.225       702.02
   76      379.687       701.34
   77      380.148       701.16
   78      380.609       701.32
   79      381.071       701.72
   80      381.532       702.24
   81      381.993       702.22
   82      382.454       701.72
   83      382.915       701.02
   84      383.375       700.24
   85      383.836       699.88
   86      384.297       700.32
   87      384.757       701.36
   88      385.218       702.24
   89      385.678       702.68
   90      386.138       702.78
   91      386.599       702.58
   92      387.059       702.04
   93      387.519        701.5
   94      387.979       701.32
   95      388.439        701.8
   96      388.899        702.5
   97      389.358       702.88
   98      389.818       703.36
   99      390.278        703.7
  100      390.737       703.52
  101      391.197       703.34
  102      391.656       703.56
  103      392.115       703.48
  104      392.575       703.12
  105      393.034          703
  106      393.493       702.74
  107      393.952       702.78
  108      394.411       702.94
  109       394.87        703.4
  110      395.328       703.84
  111      395.787       703.94
  112      396.246       703.88
  113      396.704       704.12
  114      397.163       704.06
  115      397.621       703.84
  116      398.079       704.02
  117      398.537        703.9
  118      398.995       703.36
  119      399.454       702.84
  120      399.911       702.48
  121      400.369       702.06
  122      400.827        701.5
  123      401.285       701.24
  124      401.743       701.82
  125        402.2       702.22
  126      402.658       702.04
  127      403.115       702.08
  128      403.572       701.92
  129       404.03       700.92
  130      404.487       700.16
  131      404.944       700.22
  132      405.401       700.38
  133      405.858       700.72
  134      406.315        701.4
  135      406.771       701.76
  136      407.228        701.5
  137      407.685       701.52
  138      408.141        701.9
  139      408.598       702.08
  140      409.054       702.34
  141       409.51       702.92
  142      409.967       702.88
  143      410.423        702.5
  144      410.879        702.5
  145      411.335        702.3
  146      411.791       702.14
  147      412.246        702.6
  148      412.702       703.58
  149      413.158       704.68
  150      413.613       705.54
  151      414.069       705.88
  152      414.524       705.22
  153       414.98       703.62
  154      415.435        701.7
  155       415.89       699.94
  156      416.345       698.92
  157        416.8          699
  158      417.255       699.76
  159       417.71       700.62
  160      418.165       701.34
  161      418.619       702.34
  162      419.074       703.14
  163      419.529       703.08
  164      419.983        702.7
  165      420.437       702.68
  166      420.892       702.26
  167      421.346       701.64
  168        421.8       701.14
  169      422.254        700.9
  170      422.708        701.1
  171      423.162        701.1
  172      423.616       701.48
  173       424.07        703.1
  174      424.523       704.58
  175      424.977       705.08
  176       425.43       705.52
  177      425.884       705.36
  178      426.337       703.88
  179       426.79       702.66
  180      427.243       702.32
  181      427.697        701.9
  182       428.15       701.58
  183      428.602       701.82
  184      429.055       702.36
  185      429.508       702.58
  186      429.961       702.66
  187      430.413       702.24
  188      430.866       701.68
  189      431.318       701.58
  190      431.771       701.56
  191      432.223       701.06
  192      432.675       701.06
  193      433.127       701.46
  194      433.579       700.96
  195      434.031        700.6
  196      434.483       701.14
  197      434.935       701.94
  198      435.387       702.58
  199      435.838          703
  200       436.29        703.1
  201      436.741       702.96
  202      437.193       702.62
  203      437.644       702.26
  204      438.095       702.68
  205      438.546       703.24
  206      438.997        703.4
  207      439.448        703.6
  208      439.899       704.08
  209       440.35       704.04
  210      440.801        703.9
  211      441.251        704.1
  212      441.702       703.96
  213      442.152       703.56
  214      442.603       703.12
  215      443.053       702.88
  216      443.503       703.02
  217      443.954       703.36
  218      444.404       703.26
  219      444.854       703.14
  220      445.304       703.32
  221      445.753       703.32
  222      446.203       703.22
  223      446.653       702.94
  224      447.102          703
  225      447.552       702.92
  226      448.001       702.76
  227      448.451       703.14
  228        448.9       703.98
  229      449.349       704.02
  230      449.798       703.74
  231      450.247       703.22
  232      450.696       702.28
  233      451.145       701.36
  234      451.594       701.08
  235      452.042       701.04
  236      452.491       700.78
  237      452.939       700.46
  238      453.388       700.68
  239      453.836       701.28
  240      454.285       701.44
  241      454.733       701.82
  242      455.181       702.42
  243      455.629       702.64
  244      456.077       702.38
  245      456.525       702.66
  246      456.972        703.2
  247       457.42       703.48
  248      457.868       703.18
  249      458.315       702.58
  250      458.763       701.78
  251       459.21       701.56
  252      459.657        701.5
  253      460.104       701.52
  254      460.552       701.86
  255      460.999       702.26
  256      461.446       702.44
  257      461.892       702.86
  258      462.339       703.16
  259      462.786       702.94
  260      463.233       702.46
  261      463.679       701.56
  262      464.125       700.54
  263      464.572       699.98
  264      465.018       699.74
  265      465.464       699.68
  266       465.91       699.74
  267      466.356       700.04
  268      466.802       701.02
  269      467.248        701.9
  270      467.694        702.4
  271       468.14       702.94
  272      468.585       703.14
  273      469.031       702.06
  274      469.476       701.24
  275      469.922       701.12
  276      470.367       701.12
  277      470.812       701.48
  278      471.257       702.54
  279      471.702       703.72
  280      472.147       704.48
  281      472.592       704.56
  282      473.037       704.12
  283      473.482       703.38
  284      473.926       702.56
  285      474.371          702
  286      474.815       701.66
  287      475.259       701.96
  288      475.704       702.84
  289      476.148       703.26
  290      476.592       703.14
  291      477.036       703.36
  292       477.48       702.94
  293      477.924          702
  294      478.368       701.56
  295      478.811       701.38
  296      479.255       700.84
  297      479.698       700.56
  298      480.142       700.62
  299      480.585       700.76
  300      481.028       700.92
  301      481.472        701.4
  302      481.915        701.9
  303      482.358        702.5
  304      482.801       702.72
  305      483.244       702.76
  306      483.686       702.52
  307      484.129       702.36
  308      484.572        702.2
  309      485.014       702.32
  310      485.456       702.74
  311      485.899        702.9
  312      486.341       702.58
  313      486.783       701.72
  314      487.225        700.5
  315      487.667       699.16
  316      488.109       698.56
  317      488.551       698.66
  318      488.993       699.66
  319      489.434        701.3
  320      489.876        702.8
  321      490.318       704.16
  322      490.759       704.82
  323        491.2       704.28
  324      491.641        703.1
  325      492.083       702.04
  326      492.524       700.66
  327      492.965        699.3
  328      493.406       698.96
  329      493.846       699.12
  330      494.287       699.14
  331      494.728       699.64
  332      495.168        700.7
  333      495.609       701.14
  334      496.049       701.38
  335      496.489       701.38
  336       496.93       701.08
  337       497.37       700.86
  338       497.81       700.78
  339       498.25       701.26
  340       498.69       702.36
  341      499.129        703.1
  342      499.569       703.42
  343      500.009        703.8
  344      500.448       703.22
  345      500.888       702.22
  346      501.327       701.58
  347      501.766       701.32
  348      502.206       701.52
  349      502.645       702.16
  350      503.084       702.92
  351      503.523        703.3
  352      503.961       702.84
  353        504.4       701.96
  354      504.839       701.06
  355      505.277       700.52
  356      505.716       700.24
  357      506.154       700.02
  358      506.593       699.86
  359      507.031        699.8
  360      507.469        699.4
  361      507.907       699.26
  362      508.345        699.8
  363      508.783       700.44
  364      509.221       700.76
  365      509.659       701.16
  366      510.096        701.5
  367      510.534       701.58
  368      510.971       701.24
  369      511.409       700.96
  370      511.846        700.8
  371      512.283       700.62
  372       512.72       700.76
  373      513.157       701.16
  374      513.594       701.42
  375      514.031       701.24
  376      514.468        701.1
  377      514.905       700.36
  378      515.341       699.54
  379      515.778       699.36
  380      516.214       699.72
  381       516.65       699.72
  382      517.087       699.76
  383      517.523       700.06
  384      517.959       700.08
  385      518.395       699.68
  386      518.831       699.46
  387      519.267       699.32
  388      519.702       699.24
  389      520.138       699.82
  390      520.574       700.52
  391      521.009          701
  392      521.444       701.94
  393       521.88       703.18
  394      522.315       703.58
  395       522.75       703.84
  396      523.185       704.26
  397       523.62       704.02
  398      524.055        702.8
  399       524.49       701.54
  400      524.924       700.58
  401      525.359        699.9
  402      525.794       699.74
  403      526.228        700.1
  404      526.662       700.98
  405      527.097       701.72
  406      527.531       701.84
  407      527.965       701.58
  408      528.399       701.14
  409      528.833       700.64
  410      529.267       699.92
  411        529.7       699.12
  412      530.134       698.64
  413      530.568       698.44
  414      531.001       697.94
  415      531.434       697.82
  416      531.868       698.28
  417      532.301       698.64
  418      532.734       698.94
  419      533.167        698.9
  420        533.6       699.56
  421      534.033       700.84
  422      534.466       701.78
  423      534.898       702.32
  424      535.331       703.12
  425      535.763       702.92
  426      536.196       701.86
  427      536.628       701.06
  428       537.06        700.2
  429      537.493        699.2
  430      537.925       698.46
  431      538.357       698.22
  432      538.788       698.54
  433       539.22        699.1
  434      539.652        699.5
  435      540.084       699.84
  436      540.515       700.22
  437      540.947       700.16
  438      541.378       700.28
  439      541.809       700.88
  440       542.24       701.48
  441      542.672       701.68
  442      543.103        701.6
  443      543.533       701.18
  444      543.964        700.8
  445      544.395        700.5
  446      544.826       700.46
  447      545.256        701.1
  448      545.687       701.88
  449      546.117       702.42
  450      546.547       702.64
  451      546.978        702.2
  452      547.408       701.34
  453      547.838       701.34
  454      548.268       701.52
  455      548.698       702.04
  456      549.127          703
  457      549.557        703.2
  458      549.987       702.58
  459      550.416       701.82
  460      550.846       700.64
  461      551.275       699.76
  462      551.704        700.3
  463      552.133       701.28
  464      552.562       702.14
  465      552.991       703.04
  466       553.42       703.62
  467      553.849       703.82
  468      554.278       703.48
  469      554.706        703.2
  470      555.135       703.08
  471      555.563       702.88
  472      555.991        702.5
  473       556.42        702.2
  474      556.848       702.04
  475      557.276        702.2
  476      557.704       702.34
  477      558.132       701.98
  478       558.56       701.72
  479      558.987       701.36
  480      559.415       700.56
  481      559.843       699.62
  482       560.27       699.14
  483      560.697       698.84
  484      561.125       699.04
  485      561.552       699.48
  486      561.979       699.76
  487      562.406       700.02
  488      562.833       700.42
  489       563.26       700.64
  490      563.686       701.02
  491      564.113          702
  492       564.54        702.8
  493      564.966       703.06
  494      565.392        702.9
  495      565.819       702.64
  496      566.245       702.06
  497      566.671        701.8
  498      567.097       702.04
  499      567.523       702.42
  500      567.949       702.58
  501      568.374       702.98
  502        568.8       703.66
  503      569.226       703.98
  504      569.651       703.98
  505      570.077       704.24
  506      570.502       704.14
  507      570.927       703.64
  508      571.352       703.94
  509      571.777       704.34
  510      572.202        704.5
  511      572.627       704.74
  512      573.052        704.6
  513      573.476       703.56
  514      573.901       702.96
  515      574.325       702.66
  516       574.75       702.32
  517      575.174       702.38
  518      575.598       702.44
  519      576.022       702.06
  520      576.446       701.78
  521       576.87       701.84
  522      577.294       701.52
  523      577.718       701.16
  524      578.142        701.5
  525      578.565       701.76
  526      578.989        701.7
  527      579.412       701.76
  528      579.835       702.34
  529      580.259          703
  530      580.682       703.26
  531      581.105       703.68
  532      581.528        704.3
  533      581.951        704.2
  534      582.373       703.52
  535      582.796       703.36
  536      583.219        702.9
  537      583.641          702
  538      584.063       701.68
  539      584.486       701.44
  540      584.908        701.1
  541       585.33       700.84
  542      585.752       700.86
  543      586.174        700.8
  544      586.596       700.54
  545      587.018        700.1
  546      587.439       699.94
  547      587.861       699.86
  548      588.282       699.76
  549      588.704       699.72
  550      589.125       699.56
  551      589.546       699.18
  552      589.967       699.18
  553      590.388        699.4
  554      590.809        699.5
  555       591.23       699.52
  556      591.651       699.78
  557      592.071       699.92
  558      592.492       699.84
  559      592.912       700.36
  560      593.333       701.04
  561      593.753       701.68
  562      594.173       702.18
  563      594.593       702.48
  564      595.013       702.22
  565      595.433        702.1
  566      595.853       701.86
  567      596.273       701.46
  568      596.693       701.78
  569      597.112       702.72
  570      597.532        703.4
  571      597.951        703.7
  572       598.37       703.96
  573      598.789       703.74
  574      599.208       702.96
  575      599.627       702.62
  576      600.046       702.66
  577      600.465       702.74
  578      600.884        702.9
  579      601.303       703.02
  580      601.721       702.12
  581      602.139       700.98
  582      602.558       700.12
  583      602.976       698.96
  584      603.394       697.82
  585      603.812        697.6
  586       604.23       698.16
  587      604.648        699.2
  588      605.066       700.48
  589      605.484       701.52
  590      605.901       702.32
  591      606.319       702.52
  592      606.736       702.16
  593      607.154       701.54
  594      607.571       701.28
  595      607.988       701.46
  596      608.405       701.88
  597      608.822       701.96
  598      609.239       701.82
  599      609.656       701.34
  600      610.072       700.68
  601      610.489       700.26
  602      610.905       700.36
  603      611.322       700.58
  604      611.738       701.16
  605      612.154       701.54
  606       612.57       701.64
  607      612.986       701.88
  608      613.402       702.62
  609      613.818       702.96
  610      614.234       703.02
