scansci Spectrometer Data File
--- Measurement Setting ---
Type: Sample Spectrum
Date: Mon Oct 16 15:48:13 2023
User: (Reserved by scansci)
Serial: (Reserved by scansci)
Channel: No. 11
Integration Time: 1
Average: 10
Boxcar: 2
Electrical Dark: No-corrected
Time Normalize: (Reserved by scansci)
Dual-beam: (Reserved by scansci)
Reference Ch: (Reserved by scansci)
--- Measurement Data ---
Pixel   Wavelength   Intensity
    0        162.5      600.433
    1      162.985        600.3
    2      163.469       600.24
    3      163.954       600.34
    4      164.439       600.62
    5      164.923       601.16
    6      165.408          602
    7      165.892        602.9
    8      166.377       603.66
    9      166.861       603.76
   10      167.345       603.32
   11       167.83        602.2
   12      168.314        600.6
   13      168.798       599.12
   14      169.282       598.04
   15      169.766        597.5
   16       170.25        597.5
   17      170.734       597.52
   18      171.218       597.74
   19      171.702        598.3
   20      172.185       598.36
   21      172.669       598.54
   22      173.153        599.3
   23      173.636        599.8
   24       174.12       600.28
   25      174.603       600.96
   26      175.087       601.04
   27       175.57       601.02
   28      176.053       600.92
   29      176.537       600.52
   30       177.02       600.36
   31      177.503       600.54
   32      177.986       600.72
   33      178.469       601.04
   34      178.952        601.6
   35      179.435       602.52
   36      179.918       603.14
   37      180.401       603.42
   38      180.884       603.48
   39      181.366        603.2
   40      181.849       602.48
   41      182.332       601.94
   42      182.814        601.6
   43      183.297       601.52
   44      183.779       601.08
   45      184.262       600.12
   46      184.744        599.1
   47      185.226        598.3
   48      185.708       597.28
   49      186.191       596.82
   50      186.673       596.78
   51      187.155        597.2
   52      187.637       597.46
   53      188.119        597.5
   54        188.6       597.54
   55      189.082       597.96
   56      189.564       598.34
   57      190.046       598.64
   58      190.527       599.16
   59      191.009       599.42
   60      191.491       599.54
   61      191.972          600
   62      192.454       600.88
   63      192.935        601.9
   64      193.416       603.04
   65      193.897       603.84
   66      194.379       603.78
   67       194.86       603.72
   68      195.341       603.56
   69      195.822       602.78
   70      196.303       602.08
   71      196.784       601.88
   72      197.265       601.22
   73      197.746       600.92
   74      198.226       601.58
   75      198.707        602.3
   76      199.188       602.24
   77      199.668       602.04
   78      200.149       601.74
   79      200.629       601.46
   80       201.11        601.5
   81       201.59       602.08
   82       202.07       602.86
   83       202.55       603.38
   84      203.031       603.64
   85      203.511       603.62
   86      203.991       603.78
   87      204.471       603.84
   88      204.951       604.22
   89      205.431       605.18
   90       205.91       605.84
   91       206.39       606.04
   92       206.87       606.42
   93      207.349       606.46
   94      207.829       605.82
   95      208.309       605.56
   96      208.788       605.78
   97      209.267       606.04
   98      209.747       606.24
   99      210.226        606.6
  100      210.705       607.26
  101      211.185        608.4
  102      211.664       609.88
  103      212.143       610.68
  104      212.622        610.9
  105      213.101       610.88
  106      213.579       610.22
  107      214.058       608.92
  108      214.537       608.62
  109      215.016       608.78
  110      215.494       608.76
  111      215.973       608.98
  112      216.452       609.54
  113       216.93       610.12
  114      217.408       610.82
  115      217.887       611.62
  116      218.365       612.22
  117      218.843        612.2
  118      219.321       611.68
  119      219.799        611.2
  120      220.278       610.74
  121      220.755       610.34
  122      221.233        610.3
  123      221.711       610.38
  124      222.189       609.78
  125      222.667          609
  126      223.144       608.74
  127      223.622       608.52
  128        224.1        608.5
  129      224.577       609.12
  130      225.055       609.94
  131      225.532       609.88
  132      226.009       609.78
  133      226.486       609.68
  134      226.964       608.96
  135      227.441       607.82
  136      227.918        606.8
  137      228.395       606.14
  138      228.872       605.52
  139      229.349       605.36
  140      229.826       605.58
  141      230.302        605.9
  142      230.779        605.8
  143      231.256       605.58
  144      231.732       605.18
  145      232.209       604.34
  146      232.685        603.5
  147      233.162       603.06
  148      233.638       602.68
  149      234.114       602.18
  150       234.59       601.88
  151      235.066       601.86
  152      235.543       601.44
  153      236.019       601.32
  154      236.495       601.98
  155       236.97       602.82
  156      237.446       603.34
  157      237.922        603.9
  158      238.398        604.3
  159      238.873        604.3
  160      239.349        604.1
  161      239.824        604.1
  162        240.3       604.66
  163      240.775       605.26
  164      241.251       605.26
  165      241.726        605.4
  166      242.201       605.84
  167      242.676       605.78
  168      243.151        605.3
  169      243.626       604.98
  170      244.101        604.6
  171      244.576       604.18
  172      245.051       604.28
  173      245.526        604.6
  174          246       605.48
  175      246.475       606.64
  176       246.95       607.48
  177      247.424       607.68
  178      247.899       607.44
  179      248.373       607.26
  180      248.847       607.04
  181      249.321       606.66
  182      249.796        606.6
  183       250.27       607.26
  184      250.744        607.5
  185      251.218        607.6
  186      251.692       607.54
  187      252.166       607.16
  188      252.639       606.44
  189      253.113       605.92
  190      253.587        605.3
  191       254.06       604.82
  192      254.534        604.5
  193      255.007        603.8
  194      255.481       603.14
  195      255.954       603.24
  196      256.427       603.64
  197      256.901        603.6
  198      257.374       603.62
  199      257.847        603.6
  200       258.32       603.22
  201      258.793       602.96
  202      259.266        603.2
  203      259.739       603.56
  204      260.211       603.74
  205      260.684       603.76
  206      261.157       603.28
  207      261.629       602.16
  208      262.102       601.62
  209      262.574       601.42
  210      263.046       600.78
  211      263.519       601.08
  212      263.991       602.56
  213      264.463       603.48
  214      264.935       603.74
  215      265.407       604.22
  216      265.879       604.18
  217      266.351       603.54
  218      266.823       602.74
  219      267.295       601.84
  220      267.766       600.86
  221      268.238       600.06
  222       268.71        599.7
  223      269.181       599.94
  224      269.653       600.96
  225      270.124       602.38
  226      270.595       603.62
  227      271.066       604.36
  228      271.538        605.2
  229      272.009       605.78
  230       272.48       605.36
  231      272.951        604.8
  232      273.422          605
  233      273.892       604.72
  234      274.363        604.5
  235      274.834       605.38
  236      275.305       606.38
  237      275.775       606.74
  238      276.246       607.06
  239      276.716       607.28
  240      277.186       607.22
  241      277.657       607.04
  242      278.127       606.66
  243      278.597       606.34
  244      279.067       605.88
  245      279.537        605.3
  246      280.007       604.72
  247      280.477       604.62
  248      280.947       604.74
  249      281.417       604.84
  250      281.886       605.04
  251      282.356       605.22
  252      282.825       605.08
  253      283.295        605.2
  254      283.764       605.62
  255      284.234       605.58
  256      284.703       605.48
  257      285.172       605.62
  258      285.641        605.6
  259       286.11       605.84
  260      286.579       606.18
  261      287.048       606.34
  262      287.517       605.86
  263      287.986       604.92
  264      288.454       603.38
  265      288.923       602.26
  266      289.392        601.9
  267       289.86       602.12
  268      290.329       602.78
  269      290.797       603.88
  270      291.265       604.96
  271      291.734       605.64
  272      292.202       605.88
  273       292.67        605.5
  274      293.138       604.76
  275      293.606       603.88
  276      294.074       602.52
  277      294.541        601.6
  278      295.009        601.8
  279      295.477       602.38
  280      295.944        602.7
  281      296.412       603.26
  282      296.879        603.6
  283      297.347       603.04
  284      297.814       602.34
  285      298.281       602.14
  286      298.749       602.36
  287      299.216        602.4
  288      299.683       602.34
  289       300.15       602.34
  290      300.616        602.7
  291      301.083       602.94
  292       301.55       603.68
  293      302.017       604.56
  294      302.483       605.16
  295       302.95       604.98
  296      303.416       604.32
  297      303.883       603.58
  298      304.349       603.56
  299      304.815       603.48
  300      305.281       603.62
  301      305.748        603.8
  302      306.214       603.68
  303       306.68       603.08
  304      307.146       602.36
  305      307.611       601.84
  306      308.077        601.5
  307      308.543        601.3
  308      309.008        601.7
  309      309.474       602.72
  310      309.939       603.36
  311      310.405       603.82
  312       310.87       604.32
  313      311.335        604.2
  314        311.8       603.24
  315      312.266       602.38
  316      312.731        601.8
  317      313.196       601.14
  318       313.66       601.06
  319      314.125       602.16
  320       314.59       603.54
  321      315.055        604.8
  322      315.519       605.68
  323      315.984          606
  324      316.448       605.34
  325      316.913       604.02
  326      317.377       603.14
  327      317.841       603.36
  328      318.305       604.24
  329      318.769        605.7
  330      319.233       607.58
  331      319.697       608.82
  332      320.161       608.62
  333      320.625       607.68
  334      321.089       606.74
  335      321.552       605.56
  336      322.016       604.72
  337      322.479       605.16
  338      322.943       605.44
  339      323.406       604.92
  340      323.869        604.5
  341      324.333       604.44
  342      324.796       604.44
  343      325.259       604.94
  344      325.722       605.38
  345      326.185       605.66
  346      326.647       605.82
  347       327.11       605.66
  348      327.573       605.36
  349      328.035       605.68
  350      328.498       606.14
  351       328.96       606.38
  352      329.423       606.68
  353      329.885       606.38
  354      330.347       605.96
  355       330.81        606.3
  356      331.272       606.56
  357      331.734       606.38
  358      332.196       606.76
  359      332.657       607.22
  360      333.119       607.16
  361      333.581        607.1
  362      334.043       607.52
  363      334.504       608.32
  364      334.966       608.84
  365      335.427       609.14
  366      335.888       609.48
  367       336.35       609.08
  368      336.811        608.3
  369      337.272       607.88
  370      337.733        607.8
  371      338.194        607.7
  372      338.655       608.38
  373      339.115       609.36
  374      339.576       610.28
  375      340.037       611.08
  376      340.497        611.6
  377      340.958       611.32
  378      341.418       610.78
  379      341.879        610.2
  380      342.339       610.06
  381      342.799       610.38
  382      343.259       610.98
  383      343.719       611.58
  384      344.179       612.24
  385      344.639       612.48
  386      345.099       612.72
  387      345.559       612.92
  388      346.018       612.98
  389      346.478       613.42
  390      346.937       614.26
  391      347.397       614.76
  392      347.856       614.38
  393      348.315       613.62
  394      348.774       612.74
  395      349.234       611.36
  396      349.693       610.22
  397      350.152       610.16
  398       350.61        610.3
  399      351.069        609.9
  400      351.528       609.56
  401      351.987       608.84
  402      352.445        607.9
  403      352.904       607.32
  404      353.362       606.98
  405       353.82       606.94
  406      354.279       607.82
  407      354.737       608.86
  408      355.195        609.1
  409      355.653        609.1
  410      356.111       609.14
  411      356.569       608.26
  412      357.027       607.06
  413      357.484       606.56
  414      357.942        606.3
  415      358.399       605.66
  416      358.857       605.72
  417      359.314       606.24
  418      359.772        606.5
  419      360.229        606.5
  420      360.686       605.88
  421      361.143       604.78
  422        361.6       604.24
  423      362.057       604.08
  424      362.514       604.38
  425      362.971       605.64
  426      363.427       606.76
  427      363.884       607.28
  428       364.34       607.68
  429      364.797       607.46
  430      365.253        607.2
  431      365.709       607.68
  432      366.166        607.6
  433      366.622       607.18
  434      367.078          607
  435      367.534       606.16
  436       367.99       604.52
  437      368.445       603.18
  438      368.901        602.1
  439      369.357       601.12
  440      369.812       600.84
  441      370.268       601.04
  442      370.723        601.5
  443      371.179        602.1
  444      371.634       602.68
  445      372.089       602.54
  446      372.544       602.02
  447      372.999       601.88
  448      373.454       602.02
  449      373.909       602.02
  450      374.364       602.46
  451      374.818       603.26
  452      375.273       603.28
  453      375.727       603.04
  454      376.182       603.44
  455      376.636       603.66
  456       377.09        603.8
  457      377.545        604.5
  458      377.999       605.12
  459      378.453       605.18
  460      378.907       604.84
  461      379.361       604.36
  462      379.814       603.82
  463      380.268       603.16
  464      380.722       602.32
  465      381.175       602.18
  466      381.629       602.46
  467      382.082       602.54
  468      382.535       602.82
  469      382.989       603.34
  470      383.442       603.66
  471      383.895       603.96
  472      384.348       604.64
  473      384.801       604.72
  474      385.253       604.48
  475      385.706       603.72
  476      386.159       602.58
  477      386.611        601.2
  478      387.064       600.74
  479      387.516          601
  480      387.968          602
  481      388.421       603.38
  482      388.873       604.76
  483      389.325       605.58
  484      389.777       606.24
  485      390.229       606.84
  486      390.681       606.98
  487      391.132       606.28
  488      391.584       605.56
  489      392.035       604.66
  490      392.487       603.42
  491      392.938        602.3
  492       393.39       601.78
  493      393.841       601.42
  494      394.292       601.28
  495      394.743       601.82
  496      395.194       603.04
  497      395.645       604.26
  498      396.096        605.3
  499      396.546        605.9
  500      396.997       605.16
  501      397.448        603.5
  502      397.898       602.66
  503      398.349       601.98
  504      398.799       601.28
  505      399.249       601.06
  506      399.699       601.16
  507      400.149       600.26
  508      400.599       599.14
  509      401.049       598.38
  510      401.499       598.04
  511      401.949       597.54
  512      402.398       597.52
  513      402.848       598.14
  514      403.297       598.88
  515      403.747       599.88
  516      404.196       601.24
  517      404.645       602.64
  518      405.094       603.96
  519      405.543       605.22
  520      405.992       605.74
  521      406.441       605.16
  522       406.89       603.98
  523      407.339       602.62
  524      407.787       601.52
  525      408.236       600.86
  526      408.684       601.18
  527      409.132       602.32
  528      409.581       603.26
  529      410.029       603.56
  530      410.477       603.86
  531      410.925       604.06
  532      411.373       604.06
  533      411.821       604.22
  534      412.269       605.08
  535      412.716       605.72
  536      413.164       605.64
  537      413.611       605.18
  538      414.059       604.26
  539      414.506       602.84
  540      414.953       602.48
  541        415.4        603.4
  542      415.847       604.62
  543      416.294       605.92
  544      416.741        607.4
  545      417.188        608.1
  546      417.635       607.58
  547      418.081       606.82
  548      418.528       606.48
  549      418.974       605.68
  550      419.421        604.5
  551      419.867       603.74
  552      420.313       602.96
  553      420.759       602.22
  554      421.205        602.3
  555      421.651       602.42
  556      422.097       602.34
  557      422.543        602.4
  558      422.989       602.18
  559      423.434        601.8
  560       423.88        602.3
  561      424.325          603
  562       424.77       603.58
  563      425.216       604.48
  564      425.661       604.78
  565      426.106       604.44
  566      426.551       604.58
  567      426.996        604.3
  568       427.44       603.26
  569      427.885       602.48
  570       428.33       601.94
  571      428.774       601.26
  572      429.219       601.32
  573      429.663       602.08
  574      430.107       602.58
  575      430.551       601.96
  576      430.996        601.4
  577       431.44       601.12
  578      431.883       600.74
  579      432.327        600.7
  580      432.771        601.5
  581      433.215       602.12
  582      433.658        602.6
  583      434.102       603.26
  584      434.545        603.7
  585      434.988       603.96
  586      435.431       604.32
  587      435.875       604.32
  588      436.318       604.18
  589      436.761        604.4
  590      437.203       604.28
  591      437.646        603.8
  592      438.089       603.42
  593      438.531          603
  594      438.974       602.72
  595      439.416        602.9
  596      439.859       603.08
  597      440.301       603.06
  598      440.743       602.46
  599      441.185       602.24
  600      441.627       603.22
  601      442.069       604.22
  602       442.51        604.8
  603      442.952        605.9
  604      443.394       606.04
  605      443.835       604.68
  606      444.277       603.58
  607      444.718       603.12
  608      445.159       602.16
  609        445.6       600.64
  610      446.041       599.52
