scansci Spectrometer Data File
--- Measurement Setting ---
Type: Sample Spectrum
Date: Mon Oct 16 17:49:48 2023
User: (Reserved by scansci)
Serial: (Reserved by scansci)
Channel: No. 11
Integration Time: 1
Average: 10
Boxcar: 2
Electrical Dark: No-corrected
Time Normalize: (Reserved by scansci)
Dual-beam: (Reserved by scansci)
Reference Ch: (Reserved by scansci)
--- Measurement Data ---
Pixel   Wavelength   Intensity
    0        344.4      668.367
    1      344.867      667.925
    2      345.334       667.54
    3      345.801        667.3
    4      346.268       667.28
    5      346.735       667.88
    6      347.202       668.96
    7      347.669       670.06
    8      348.135        670.9
    9      348.602       671.44
   10      349.068        671.2
   11      349.535       670.26
   12      350.001        669.5
   13      350.467       669.18
   14      350.933       668.96
   15      351.399       669.46
   16      351.866       670.14
   17      352.331       670.36
   18      352.797       670.24
   19      353.263       669.58
   20      353.729       668.66
   21      354.194       668.28
   22       354.66       668.36
   23      355.126       668.56
   24      355.591       668.72
   25      356.056        668.6
   26      356.522       668.22
   27      356.987       667.74
   28      357.452       667.08
   29      357.917       666.62
   30      358.382       666.72
   31      358.847          667
   32      359.312       667.76
   33      359.776        668.9
   34      360.241       670.04
   35      360.706       670.84
   36       361.17       671.42
   37      361.634       671.66
   38      362.099       671.74
   39      362.563       671.74
   40      363.027       671.64
   41      363.491       671.58
   42      363.955       671.34
   43      364.419       670.78
   44      364.883        670.2
   45      365.347          670
   46      365.811       669.94
   47      366.274       670.32
   48      366.738       671.08
   49      367.201       671.72
   50      367.665       671.86
   51      368.128        671.7
   52      368.592       670.96
   53      369.055       670.04
   54      369.518       669.72
   55      369.981       669.64
   56      370.444       669.46
   57      370.907       669.26
   58       371.37       669.28
   59      371.832       669.26
   60      372.295       668.92
   61      372.757       668.66
   62       373.22        668.6
   63      373.682       668.28
   64      374.145       667.92
   65      374.607       668.12
   66      375.069       668.54
   67      375.531       668.96
   68      375.993        669.5
   69      376.455       669.62
   70      376.917       669.68
   71      377.379       669.88
   72      377.841       669.54
   73      378.302          669
   74      378.764       669.04
   75      379.225       669.04
   76      379.687        668.8
   77      380.148       669.02
   78      380.609       669.32
   79      381.071        669.7
   80      381.532        670.4
   81      381.993       670.94
   82      382.454       671.22
   83      382.915       671.16
   84      383.375       670.76
   85      383.836       670.24
   86      384.297       669.84
   87      384.757        669.8
   88      385.218        669.9
   89      385.678       669.66
   90      386.138       669.38
   91      386.599       669.44
   92      387.059       669.82
   93      387.519       670.42
   94      387.979       670.82
   95      388.439       670.54
   96      388.899        669.9
   97      389.358       669.12
   98      389.818       668.42
   99      390.278       668.08
  100      390.737        668.3
  101      391.197       668.78
  102      391.656       668.86
  103      392.115       668.94
  104      392.575        669.1
  105      393.034       669.06
  106      393.493        668.9
  107      393.952       669.06
  108      394.411        669.2
  109       394.87       669.04
  110      395.328       668.58
  111      395.787       667.88
  112      396.246       667.34
  113      396.704       667.14
  114      397.163       667.66
  115      397.621       668.84
  116      398.079       669.96
  117      398.537        670.8
  118      398.995        671.1
  119      399.454       670.44
  120      399.911       669.38
  121      400.369       668.64
  122      400.827       667.92
  123      401.285        667.5
  124      401.743       667.86
  125        402.2       668.62
  126      402.658        669.3
  127      403.115       669.54
  128      403.572       669.34
  129       404.03       669.04
  130      404.487       669.08
  131      404.944       669.14
  132      405.401       669.02
  133      405.858       668.82
  134      406.315        668.5
  135      406.771        667.8
  136      407.228       667.14
  137      407.685       667.36
  138      408.141       668.34
  139      408.598        669.1
  140      409.054        669.2
  141       409.51        669.6
  142      409.967       670.08
  143      410.423       669.92
  144      410.879       669.84
  145      411.335       670.22
  146      411.791       670.56
  147      412.246       670.28
  148      412.702       669.94
  149      413.158       669.44
  150      413.613        668.9
  151      414.069       668.52
  152      414.524       668.56
  153       414.98        668.8
  154      415.435       669.34
  155       415.89       669.68
  156      416.345       669.36
  157        416.8       669.08
  158      417.255        668.8
  159       417.71       668.92
  160      418.165       669.82
  161      418.619       670.88
  162      419.074        671.4
  163      419.529       671.88
  164      419.983        672.1
  165      420.437       671.72
  166      420.892       671.22
  167      421.346       670.86
  168        421.8       670.52
  169      422.254       669.66
  170      422.708       668.46
  171      423.162       667.74
  172      423.616       667.44
  173       424.07       667.64
  174      424.523       668.18
  175      424.977       668.78
  176       425.43       669.26
  177      425.884       669.54
  178      426.337       669.12
  179       426.79        668.7
  180      427.243       668.74
  181      427.697        668.8
  182       428.15        668.5
  183      428.602       668.38
  184      429.055       668.62
  185      429.508       668.38
  186      429.961       667.34
  187      430.413       667.02
  188      430.866          667
  189      431.318       666.38
  190      431.771       666.26
  191      432.223       666.86
  192      432.675       667.18
  193      433.127       667.64
  194      433.579        668.3
  195      434.031       668.74
  196      434.483       669.36
  197      434.935       669.98
  198      435.387       670.22
  199      435.838       670.22
  200       436.29       669.92
  201      436.741       669.04
  202      437.193       668.12
  203      437.644       667.68
  204      438.095       667.78
  205      438.546       667.88
  206      438.997        667.7
  207      439.448       667.42
  208      439.899       667.18
  209       440.35       666.88
  210      440.801       666.96
  211      441.251       667.18
  212      441.702       667.36
  213      442.152        667.5
  214      442.603       667.02
  215      443.053       666.12
  216      443.503       666.04
  217      443.954       666.28
  218      444.404       666.36
  219      444.854       666.96
  220      445.304          668
  221      445.753       668.32
  222      446.203        667.9
  223      446.653        667.6
  224      447.102        667.2
  225      447.552       666.84
  226      448.001        666.7
  227      448.451       666.72
  228        448.9       666.68
  229      449.349        666.7
  230      449.798        666.7
  231      450.247       667.26
  232      450.696       667.92
  233      451.145          668
  234      451.594       668.26
  235      452.042       668.42
  236      452.491       667.92
  237      452.939       667.26
  238      453.388       666.88
  239      453.836        666.5
  240      454.285       666.06
  241      454.733       666.04
  242      455.181        666.6
  243      455.629       667.46
  244      456.077       668.58
  245      456.525        669.7
  246      456.972        670.4
  247       457.42       670.52
  248      457.868        670.2
  249      458.315       669.24
  250      458.763       668.08
  251       459.21        667.5
  252      459.657       667.28
  253      460.104        666.9
  254      460.552       666.76
  255      460.999       667.22
  256      461.446       667.68
  257      461.892       668.04
  258      462.339       668.22
  259      462.786       668.16
  260      463.233       667.44
  261      463.679       666.42
  262      464.125        665.9
  263      464.572       666.08
  264      465.018        666.5
  265      465.464       667.02
  266       465.91       667.18
  267      466.356       666.76
  268      466.802          666
  269      467.248       665.22
  270      467.694        664.6
  271       468.14          664
  272      468.585        663.9
  273      469.031       664.22
  274      469.476        664.5
  275      469.922        664.8
  276      470.367       665.26
  277      470.812       665.74
  278      471.257       666.52
  279      471.702       667.64
  280      472.147       668.86
  281      472.592       670.04
  282      473.037       670.68
  283      473.482       670.54
  284      473.926        669.5
  285      474.371       668.16
  286      474.815       666.72
  287      475.259       665.78
  288      475.704       665.34
  289      476.148       665.38
  290      476.592        665.7
  291      477.036       666.54
  292       477.48       666.82
  293      477.924       666.86
  294      478.368       667.12
  295      478.811        667.1
  296      479.255        666.5
  297      479.698       666.28
  298      480.142       665.98
  299      480.585       665.48
  300      481.028       665.36
  301      481.472       665.66
  302      481.915       666.16
  303      482.358       666.46
  304      482.801       666.78
  305      483.244        667.2
  306      483.686       667.26
  307      484.129       667.14
  308      484.572       667.16
  309      485.014       667.08
  310      485.456       666.98
  311      485.899       666.78
  312      486.341        666.5
  313      486.783       666.94
  314      487.225       667.66
  315      487.667          668
  316      488.109       668.72
  317      488.551       669.32
  318      488.993       669.14
  319      489.434       668.88
  320      489.876       668.52
  321      490.318        667.8
  322      490.759       667.24
  323        491.2        667.1
  324      491.641       666.86
  325      492.083       667.22
  326      492.524          668
  327      492.965       668.36
  328      493.406       668.02
  329      493.846       667.76
  330      494.287       667.66
  331      494.728       668.12
  332      495.168       668.98
  333      495.609       669.94
  334      496.049       670.92
  335      496.489       671.38
  336       496.93       671.26
  337       497.37       670.94
  338       497.81        670.7
  339       498.25       669.98
  340       498.69        668.7
  341      499.129        667.4
  342      499.569       666.52
  343      500.009       665.78
  344      500.448       665.44
  345      500.888       665.62
  346      501.327       665.84
  347      501.766          666
  348      502.206       666.62
  349      502.645       667.54
  350      503.084       668.38
  351      503.523       668.64
  352      503.961       668.56
  353        504.4       668.32
  354      504.839       667.92
  355      505.277        667.4
  356      505.716       667.22
  357      506.154       667.56
  358      506.593       667.92
  359      507.031       668.18
  360      507.469       668.98
  361      507.907       670.22
  362      508.345       670.66
  363      508.783        670.3
  364      509.221        670.2
  365      509.659       670.22
  366      510.096        670.1
  367      510.534        670.1
  368      510.971       670.26
  369      511.409       670.42
  370      511.846        670.4
  371      512.283       669.76
  372       512.72       669.68
  373      513.157       669.86
  374      513.594       669.38
  375      514.031        668.5
  376      514.468        668.1
  377      514.905       667.94
  378      515.341        667.9
  379      515.778       668.18
  380      516.214       668.72
  381       516.65       669.26
  382      517.087       669.32
  383      517.523       669.32
  384      517.959       669.38
  385      518.395       669.52
  386      518.831       670.08
  387      519.267        670.5
  388      519.702       670.94
  389      520.138       671.26
  390      520.574       671.44
  391      521.009       671.12
  392      521.444       670.66
  393       521.88       669.96
  394      522.315       669.12
  395       522.75       668.42
  396      523.185          668
  397       523.62       667.66
  398      524.055       667.52
  399       524.49       667.54
  400      524.924       667.86
  401      525.359       667.96
  402      525.794       668.06
  403      526.228       667.88
  404      526.662       667.96
  405      527.097       667.76
  406      527.531       667.82
  407      527.965       668.22
  408      528.399       668.84
  409      528.833       669.12
  410      529.267       669.18
  411        529.7       668.86
  412      530.134       668.56
  413      530.568       668.62
  414      531.001       668.86
  415      531.434       669.54
  416      531.868       670.44
  417      532.301        670.9
  418      532.734       671.14
  419      533.167       671.58
  420        533.6       671.74
  421      534.033       671.94
  422      534.466       672.18
  423      534.898        672.5
  424      535.331       672.86
  425      535.763       672.78
  426      536.196       671.98
  427      536.628       671.28
  428       537.06       670.98
  429      537.493        670.1
  430      537.925       668.94
  431      538.357       668.32
  432      538.788       668.44
  433       539.22       668.82
  434      539.652       669.84
  435      540.084       671.86
  436      540.515       674.82
  437      540.947        677.5
  438      541.378       679.62
  439      541.809       681.58
  440       542.24       682.94
  441      542.672       683.18
  442      543.103       683.36
  443      543.533       684.14
  444      543.964       688.06
  445      544.395       703.96
  446      544.826       740.94
  447      545.256        798.7
  448      545.687       864.82
  449      546.117       916.66
  450      546.547       938.16
  451      546.978       925.68
  452      547.408          883
  453      547.838        824.8
  454      548.268       773.68
  455      548.698       738.56
  456      549.127       714.76
  457      549.557       699.12
  458      549.987       689.28
  459      550.416       683.28
  460      550.846       679.44
  461      551.275       676.74
  462      551.704        674.9
  463      552.133       673.68
  464      552.562       672.48
  465      552.991       671.92
  466       553.42       671.82
  467      553.849       671.78
  468      554.278       672.14
  469      554.706       672.94
  470      555.135       673.68
  471      555.563       674.34
  472      555.991       675.02
  473       556.42       675.02
  474      556.848       674.44
  475      557.276       673.82
  476      557.704       673.64
  477      558.132       673.34
  478       558.56       672.98
  479      558.987        672.8
  480      559.415       672.64
  481      559.843       672.18
  482       560.27       671.82
  483      560.697       671.62
  484      561.125       671.08
  485      561.552       670.32
  486      561.979       669.84
  487      562.406       669.52
  488      562.833       669.42
  489       563.26       669.46
  490      563.686        669.5
  491      564.113        669.8
  492       564.54       670.08
  493      564.966       670.08
  494      565.392       670.28
  495      565.819       670.58
  496      566.245       670.66
  497      566.671       670.26
  498      567.097       669.76
  499      567.523       669.18
  500      567.949       668.56
  501      568.374        667.7
  502        568.8       667.36
  503      569.226       667.32
  504      569.651       667.82
  505      570.077       668.76
  506      570.502        669.9
  507      570.927       671.02
  508      571.352       672.24
  509      571.777       672.68
  510      572.202       672.52
  511      572.627       672.38
  512      573.052        672.5
  513      573.476       672.36
  514      573.901       672.66
  515      574.325       673.34
  516       574.75       674.46
  517      575.174       678.02
  518      575.598        686.8
  519      576.022       700.88
  520      576.446        718.3
  521       576.87       735.02
  522      577.294       747.68
  523      577.718       756.36
  524      578.142       761.72
  525      578.565        764.8
  526      578.989        765.6
  527      579.412       762.68
  528      579.835       754.04
  529      580.259       739.96
  530      580.682       722.96
  531      581.105       706.66
  532      581.528        694.2
  533      581.951       685.96
  534      582.373        680.7
  535      582.796        676.6
  536      583.219       674.02
  537      583.641       672.68
  538      584.063       671.62
  539      584.486       670.78
  540      584.908        670.4
  541       585.33       670.04
  542      585.752       669.78
  543      586.174       669.66
  544      586.596       669.54
  545      587.018       669.48
  546      587.439       669.52
  547      587.861       669.38
  548      588.282       669.42
  549      588.704        669.5
  550      589.125       669.24
  551      589.546        669.3
  552      589.967       669.52
  553      590.388       669.44
  554      590.809       669.22
  555       591.23       669.24
  556      591.651       669.02
  557      592.071       668.94
  558      592.492       669.08
  559      592.912        669.1
  560      593.333       668.84
  561      593.753       668.52
  562      594.173       668.04
  563      594.593       667.66
  564      595.013       667.72
  565      595.433       667.98
  566      595.853       668.56
  567      596.273       669.18
  568      596.693       669.46
  569      597.112       669.66
  570      597.532       669.88
  571      597.951       669.84
  572       598.37       669.82
  573      598.789       669.96
  574      599.208       670.26
  575      599.627        670.8
  576      600.046       670.74
  577      600.465       670.46
  578      600.884       670.88
  579      601.303       671.16
  580      601.721       670.86
  581      602.139       670.54
  582      602.558        670.1
  583      602.976        668.9
  584      603.394        667.5
  585      603.812       667.06
  586       604.23        667.5
  587      604.648       668.14
  588      605.066       669.02
  589      605.484       670.36
  590      605.901       671.38
  591      606.319        671.8
  592      606.736       671.34
  593      607.154       670.58
  594      607.571       669.92
  595      607.988       669.26
  596      608.405       669.08
  597      608.822        669.4
  598      609.239       669.84
  599      609.656        670.2
  600      610.072       670.28
  601      610.489        670.4
  602      610.905       670.42
  603      611.322       670.06
  604      611.738       669.44
  605      612.154       668.88
  606       612.57       667.76
  607      612.986       667.38
  608      613.402       667.78
  609      613.818       668.08
  610      614.234       668.54
