scansci Spectrometer Data File
--- Measurement Setting ---
Type: Sample Spectrum
Date: Mon Oct 16 17:49:21 2023
User: (Reserved by scansci)
Serial: (Reserved by scansci)
Channel: No. 11
Integration Time: 1
Average: 10
Boxcar: 2
Electrical Dark: No-corrected
Time Normalize: (Reserved by scansci)
Dual-beam: (Reserved by scansci)
Reference Ch: (Reserved by scansci)
--- Measurement Data ---
Pixel   Wavelength   Intensity
    0        162.5      595.533
    1      162.985       595.25
    2      163.469        595.2
    3      163.954        595.4
    4      164.439       595.54
    5      164.923       595.54
    6      165.408       595.58
    7      165.892       595.54
    8      166.377       595.08
    9      166.861       594.52
   10      167.345       594.14
   11       167.83       594.14
   12      168.314       593.84
   13      168.798       593.12
   14      169.282       592.54
   15      169.766       592.08
   16       170.25       591.28
   17      170.734       590.68
   18      171.218        590.9
   19      171.702       591.26
   20      172.185       591.82
   21      172.669       592.32
   22      173.153       592.54
   23      173.636       592.74
   24       174.12       593.14
   25      174.603       593.14
   26      175.087       593.14
   27       175.57       593.48
   28      176.053       593.32
   29      176.537       592.62
   30       177.02        592.2
   31      177.503       592.08
   32      177.986       592.48
   33      178.469        593.6
   34      178.952        594.7
   35      179.435          595
   36      179.918       594.82
   37      180.401       594.24
   38      180.884       593.02
   39      181.366       591.54
   40      181.849        590.9
   41      182.332       590.86
   42      182.814       590.58
   43      183.297          591
   44      183.779       591.82
   45      184.262       592.14
   46      184.744       592.24
   47      185.226       592.62
   48      185.708       592.52
   49      186.191       592.66
   50      186.673       592.98
   51      187.155       593.46
   52      187.637       594.34
   53      188.119       595.24
   54        188.6       595.98
   55      189.082       597.08
   56      189.564       597.54
   57      190.046       596.84
   58      190.527       595.98
   59      191.009       595.34
   60      191.491       594.38
   61      191.972        593.8
   62      192.454       593.88
   63      192.935        594.2
   64      193.416       594.44
   65      193.897       594.42
   66      194.379       594.38
   67       194.86       594.12
   68      195.341       593.58
   69      195.822       592.96
   70      196.303       592.48
   71      196.784       591.52
   72      197.265        590.5
   73      197.746          590
   74      198.226        589.6
   75      198.707       589.56
   76      199.188       590.44
   77      199.668       591.84
   78      200.149       592.88
   79      200.629       593.84
   80       201.11       594.54
   81       201.59       594.44
   82       202.07       593.96
   83       202.55       593.12
   84      203.031        591.8
   85      203.511        590.8
   86      203.991       590.52
   87      204.471       590.64
   88      204.951       591.58
   89      205.431       592.84
   90       205.91        593.7
   91       206.39       594.38
   92       206.87        594.5
   93      207.349        593.8
   94      207.829       592.92
   95      208.309       592.36
   96      208.788       591.74
   97      209.267       591.08
   98      209.747        590.5
   99      210.226       590.34
  100      210.705       590.04
  101      211.185       589.48
  102      211.664       589.22
  103      212.143       589.62
  104      212.622       590.02
  105      213.101       590.48
  106      213.579       591.08
  107      214.058       591.52
  108      214.537       591.74
  109      215.016       592.12
  110      215.494       592.26
  111      215.973       591.88
  112      216.452       591.64
  113       216.93       591.44
  114      217.408       590.94
  115      217.887        590.6
  116      218.365       591.08
  117      218.843        591.7
  118      219.321       592.28
  119      219.799       593.14
  120      220.278       593.64
  121      220.755       593.48
  122      221.233       593.38
  123      221.711        593.4
  124      222.189       593.02
  125      222.667       592.48
  126      223.144       592.42
  127      223.622       592.66
  128        224.1       592.86
  129      224.577       593.26
  130      225.055        594.3
  131      225.532       595.34
  132      226.009       595.56
  133      226.486       595.58
  134      226.964        595.6
  135      227.441       595.66
  136      227.918       595.64
  137      228.395       596.04
  138      228.872       596.44
  139      229.349       595.94
  140      229.826       594.96
  141      230.302       594.52
  142      230.779       594.46
  143      231.256       594.34
  144      231.732        594.6
  145      232.209       595.44
  146      232.685        595.7
  147      233.162       595.02
  148      233.638       594.56
  149      234.114       594.68
  150       234.59       594.06
  151      235.066       593.56
  152      235.543       594.14
  153      236.019       593.98
  154      236.495       593.02
  155       236.97       592.66
  156      237.446       592.36
  157      237.922       591.86
  158      238.398       591.82
  159      238.873        592.2
  160      239.349       592.98
  161      239.824       593.48
  162        240.3       593.26
  163      240.775       593.28
  164      241.251       594.06
  165      241.726       594.44
  166      242.201       594.42
  167      242.676       594.62
  168      243.151       594.86
  169      243.626       594.36
  170      244.101        593.4
  171      244.576       592.96
  172      245.051          593
  173      245.526        593.4
  174          246       594.46
  175      246.475       595.78
  176       246.95       596.48
  177      247.424       596.68
  178      247.899       596.06
  179      248.373       594.84
  180      248.847        593.6
  181      249.321       592.64
  182      249.796       591.96
  183       250.27        592.2
  184      250.744       593.06
  185      251.218       593.94
  186      251.692       595.22
  187      252.166       596.32
  188      252.639       596.56
  189      253.113        595.7
  190      253.587       595.06
  191       254.06       594.62
  192      254.534        593.7
  193      255.007       592.98
  194      255.481       593.08
  195      255.954       593.46
  196      256.427       593.64
  197      256.901       593.96
  198      257.374       594.24
  199      257.847       594.44
  200       258.32       593.98
  201      258.793          593
  202      259.266       592.14
  203      259.739       591.66
  204      260.211        591.5
  205      260.684       591.76
  206      261.157       592.54
  207      261.629       593.84
  208      262.102       595.18
  209      262.574       595.52
  210      263.046       595.32
  211      263.519       595.14
  212      263.991       594.76
  213      264.463       593.74
  214      264.935       593.36
  215      265.407       594.04
  216      265.879       594.74
  217      266.351       595.06
  218      266.823       595.06
  219      267.295       594.44
  220      267.766       592.96
  221      268.238       591.32
  222       268.71        590.2
  223      269.181       589.64
  224      269.653       589.46
  225      270.124        590.2
  226      270.595       591.52
  227      271.066       592.74
  228      271.538       594.04
  229      272.009       594.96
  230       272.48       594.88
  231      272.951       594.52
  232      273.422       594.48
  233      273.892       594.18
  234      274.363        594.3
  235      274.834       594.98
  236      275.305          595
  237      275.775       594.44
  238      276.246       594.14
  239      276.716       593.82
  240      277.186       593.24
  241      277.657       593.32
  242      278.127       593.76
  243      278.597        593.7
  244      279.067       593.34
  245      279.537       593.24
  246      280.007       593.26
  247      280.477       592.86
  248      280.947       593.02
  249      281.417       593.84
  250      281.886       594.32
  251      282.356       594.66
  252      282.825       595.54
  253      283.295       596.26
  254      283.764        596.6
  255      284.234       597.34
  256      284.703       597.72
  257      285.172       596.82
  258      285.641       595.72
  259       286.11       595.04
  260      286.579       594.16
  261      287.048       593.36
  262      287.517       593.24
  263      287.986       593.34
  264      288.454       593.78
  265      288.923       594.26
  266      289.392       594.76
  267       289.86       595.46
  268      290.329        595.9
  269      290.797       595.52
  270      291.265       594.58
  271      291.734        593.7
  272      292.202       592.96
  273       292.67       592.58
  274      293.138       592.74
  275      293.606       593.28
  276      294.074       593.76
  277      294.541       594.48
  278      295.009        594.9
  279      295.477       594.46
  280      295.944        593.8
  281      296.412       593.64
  282      296.879       593.44
  283      297.347       593.94
  284      297.814        594.4
  285      298.281       594.66
  286      298.749       594.38
  287      299.216       594.04
  288      299.683       593.22
  289       300.15       592.68
  290      300.616       592.68
  291      301.083       592.66
  292       301.55       592.54
  293      302.017       592.78
  294      302.483       593.46
  295       302.95       593.94
  296      303.416       594.72
  297      303.883        595.7
  298      304.349       596.54
  299      304.815       597.08
  300      305.281       597.64
  301      305.748       597.44
  302      306.214       596.54
  303       306.68       596.02
  304      307.146       595.68
  305      307.611       595.16
  306      308.077       595.16
  307      308.543       595.38
  308      309.008       595.68
  309      309.474        596.4
  310      309.939       597.68
  311      310.405       600.42
  312       310.87       604.96
  313      311.335       610.12
  314        311.8        615.3
  315      312.266       620.06
  316      312.731       623.06
  317      313.196       623.28
  318       313.66       620.74
  319      314.125        616.4
  320       314.59        611.5
  321      315.055       606.94
  322      315.519       603.38
  323      315.984       600.48
  324      316.448        598.4
  325      316.913       596.92
  326      317.377       595.32
  327      317.841       593.48
  328      318.305       592.16
  329      318.769          592
  330      319.233       592.32
  331      319.697       592.18
  332      320.161       592.36
  333      320.625        593.5
  334      321.089       594.34
  335      321.552       594.72
  336      322.016        595.5
  337      322.479        596.2
  338      322.943       596.02
  339      323.406        595.5
  340      323.869       595.12
  341      324.333       594.72
  342      324.796       594.22
  343      325.259       593.88
  344      325.722       593.52
  345      326.185       593.28
  346      326.647       593.44
  347       327.11       593.32
  348      327.573       592.96
  349      328.035        592.5
  350      328.498       592.06
  351       328.96        591.5
  352      329.423       591.38
  353      329.885       591.32
  354      330.347       591.22
  355       330.81       591.22
  356      331.272       591.02
  357      331.734       591.32
  358      332.196       592.84
  359      332.657       594.68
  360      333.119       596.16
  361      333.581       597.34
  362      334.043       597.48
  363      334.504        596.8
  364      334.966       595.92
  365      335.427       595.32
  366      335.888        595.2
  367       336.35       595.22
  368      336.811       594.94
  369      337.272          595
  370      337.733       594.74
  371      338.194       594.62
  372      338.655       595.42
  373      339.115       595.96
  374      339.576       595.76
  375      340.037       595.62
  376      340.497       595.38
  377      340.958       595.26
  378      341.418       595.48
  379      341.879       596.08
  380      342.339       597.04
  381      342.799       597.94
  382      343.259       597.94
  383      343.719       597.44
  384      344.179       596.84
  385      344.639          596
  386      345.099       595.14
  387      345.559       594.16
  388      346.018       593.58
  389      346.478       593.56
  390      346.937       593.36
  391      347.397       593.16
  392      347.856       593.42
  393      348.315       594.08
  394      348.774       594.78
  395      349.234       595.54
  396      349.693       596.06
  397      350.152       596.56
  398       350.61       596.68
  399      351.069        596.2
  400      351.528       595.22
  401      351.987       594.14
  402      352.445       593.28
  403      352.904       592.94
  404      353.362          593
  405       353.82       593.78
  406      354.279       595.06
  407      354.737       596.34
  408      355.195       597.28
  409      355.653        598.1
  410      356.111       598.74
  411      356.569        599.2
  412      357.027        599.6
  413      357.484       599.92
  414      357.942        600.2
  415      358.399       600.98
  416      358.857       601.98
  417      359.314       602.42
  418      359.772        602.9
  419      360.229       603.48
  420      360.686       603.94
  421      361.143        604.9
  422        361.6       607.74
  423      362.057       617.92
  424      362.514        648.4
  425      362.971       713.58
  426      363.427       815.12
  427      363.884       939.36
  428       364.34      1060.88
  429      364.797      1148.72
  430      365.253      1176.84
  431      365.709      1140.56
  432      366.166      1058.08
  433      366.622       954.96
  434      367.078       854.52
  435      367.534       772.22
  436       367.99       712.96
  437      368.445       672.64
  438      368.901       646.12
  439      369.357       629.16
  440      369.812        618.3
  441      370.268        611.4
  442      370.723       607.36
  443      371.179        605.2
  444      371.634       603.88
  445      372.089          603
  446      372.544       602.28
  447      372.999       601.36
  448      373.454        600.4
  449      373.909       599.46
  450      374.364        598.3
  451      374.818       597.46
  452      375.273        597.3
  453      375.727       597.18
  454      376.182       597.04
  455      376.636       597.26
  456       377.09       597.56
  457      377.545       597.36
  458      377.999       597.18
  459      378.453        597.3
  460      378.907       597.82
  461      379.361       598.66
  462      379.814       599.96
  463      380.268       601.54
  464      380.722       602.54
  465      381.175       603.18
  466      381.629       603.36
  467      382.082        602.8
  468      382.535        601.8
  469      382.989       601.02
  470      383.442       600.14
  471      383.895       599.84
  472      384.348        600.5
  473      384.801       601.24
  474      385.253        601.9
  475      385.706       602.64
  476      386.159       603.06
  477      386.611       603.42
  478      387.064       603.86
  479      387.516        603.7
  480      387.968       603.18
  481      388.421       602.74
  482      388.873       602.64
  483      389.325       603.48
  484      389.777       605.24
  485      390.229          607
  486      390.681       608.34
  487      391.132       608.74
  488      391.584       608.52
  489      392.035       608.92
  490      392.487       609.22
  491      392.938       608.76
  492       393.39       608.48
  493      393.841       608.28
  494      394.292       606.98
  495      394.743       606.04
  496      395.194       606.36
  497      395.645        607.4
  498      396.096       608.58
  499      396.546        610.2
  500      396.997       612.08
  501      397.448       614.02
  502      397.898       615.34
  503      398.349        616.6
  504      398.799       618.36
  505      399.249       620.18
  506      399.699       622.34
  507      400.149        625.2
  508      400.599       628.32
  509      401.049       632.96
  510      401.499       651.08
  511      401.949       715.14
  512      402.398       870.32
  513      402.848      1142.02
  514      403.297       1501.3
  515      403.747      1871.62
  516      404.196      2165.36
  517      404.645      2302.86
  518      405.094      2242.28
  519      405.543      2024.08
  520      405.992       1740.2
  521      406.441      1462.06
  522       406.89      1230.66
  523      407.339      1065.56
  524      407.787       955.24
  525      408.236        874.2
  526      408.684       808.16
  527      409.132       754.08
  528      409.581       711.52
  529      410.029        679.6
  530      410.477       657.02
  531      410.925       642.12
  532      411.373       632.22
  533      411.821       625.62
  534      412.269        621.8
  535      412.716       620.42
  536      413.164       619.78
  537      413.611        619.3
  538      414.059       618.22
  539      414.506       616.34
  540      414.953        614.3
  541        415.4       612.98
  542      415.847       612.26
  543      416.294          612
  544      416.741       612.56
  545      417.188        613.2
  546      417.635       614.02
  547      418.081       615.36
  548      418.528        616.9
  549      418.974       618.14
  550      419.421       619.34
  551      419.867       620.24
  552      420.313       620.48
  553      420.759       621.08
  554      421.205       621.76
  555      421.651        622.3
  556      422.097       622.54
  557      422.543       622.36
  558      422.989       622.04
  559      423.434       622.02
  560       423.88       622.08
  561      424.325       622.28
  562       424.77        622.9
  563      425.216       623.54
  564      425.661        624.3
  565      426.106       625.44
  566      426.551        627.1
  567      426.996       629.46
  568       427.44        632.4
  569      427.885        635.5
  570       428.33       638.42
  571      428.774       641.34
  572      429.219       643.62
  573      429.663       645.58
  574      430.107        648.2
  575      430.551       651.78
  576      430.996       656.92
  577       431.44       664.62
  578      431.883       676.32
  579      432.327       701.04
  580      432.771       792.92
  581      433.215      1104.84
  582      433.658      1846.76
  583      434.102      3112.52
  584      434.545      4755.82
  585      434.988      6458.86
  586      435.431      7821.24
  587      435.875      8447.44
  588      436.318       8156.2
  589      436.761      7121.84
  590      437.203      5718.46
  591      437.646      4283.56
  592      438.089      3060.52
  593      438.531       2170.5
  594      438.974      1597.22
  595      439.416      1243.36
  596      439.859      1026.26
  597      440.301       892.28
  598      440.743       808.34
  599      441.185        754.9
  600      441.627        720.1
  601      442.069       696.92
  602       442.51        681.1
  603      442.952       669.52
  604      443.394       660.46
  605      443.835       653.22
  606      444.277       646.88
  607      444.718        641.1
  608      445.159       636.68
  609        445.6       633.22
  610      446.041       630.28
