scansci Spectrometer Data File
--- Measurement Setting ---
Type: Sample Spectrum
Date: Mon Oct 16 17:38:57 2023
User: (Reserved by scansci)
Serial: (Reserved by scansci)
Channel: No. 11
Integration Time: 1
Average: 10
Boxcar: 2
Electrical Dark: No-corrected
Time Normalize: (Reserved by scansci)
Dual-beam: (Reserved by scansci)
Reference Ch: (Reserved by scansci)
--- Measurement Data ---
Pixel   Wavelength   Intensity
    0        344.4      588.067
    1      344.867      588.625
    2      345.334       588.84
    3      345.801       589.04
    4      346.268       588.84
    5      346.735          588
    6      347.202       586.78
    7      347.669        585.6
    8      348.135       584.94
    9      348.602        584.8
   10      349.068        585.2
   11      349.535          586
   12      350.001       586.82
   13      350.467       586.98
   14      350.933        586.7
   15      351.399        585.8
   16      351.866       584.82
   17      352.331       584.14
   18      352.797       584.26
   19      353.263       585.04
   20      353.729       586.02
   21      354.194        586.8
   22       354.66        587.4
   23      355.126       587.32
   24      355.591       586.86
   25      356.056        586.6
   26      356.522       586.08
   27      356.987       585.18
   28      357.452        584.4
   29      357.917       584.02
   30      358.382          584
   31      358.847       584.42
   32      359.312       585.18
   33      359.776       585.96
   34      360.241        586.5
   35      360.706       586.84
   36       361.17       587.06
   37      361.634       587.08
   38      362.099       587.48
   39      362.563       587.98
   40      363.027       588.02
   41      363.491       587.98
   42      363.955       587.98
   43      364.419       587.16
   44      364.883        586.3
   45      365.347       586.42
   46      365.811       586.56
   47      366.274       586.58
   48      366.738       587.12
   49      367.201       587.82
   50      367.665       587.96
   51      368.128       588.08
   52      368.592       588.08
   53      369.055       587.64
   54      369.518       586.92
   55      369.981        586.3
   56      370.444        585.8
   57      370.907       585.72
   58       371.37       586.02
   59      371.832       586.24
   60      372.295       586.16
   61      372.757       586.18
   62       373.22       586.12
   63      373.682       585.86
   64      374.145        585.8
   65      374.607       586.32
   66      375.069        587.1
   67      375.531       587.64
   68      375.993       588.44
   69      376.455        589.1
   70      376.917       589.28
   71      377.379       589.06
   72      377.841       588.48
   73      378.302       587.28
   74      378.764        586.3
   75      379.225       585.72
   76      379.687       585.54
   77      380.148       585.92
   78      380.609       586.66
   79      381.071        587.2
   80      381.532       587.38
   81      381.993       587.12
   82      382.454       586.56
   83      382.915       586.02
   84      383.375        585.6
   85      383.836       585.04
   86      384.297        584.8
   87      384.757       585.14
   88      385.218       585.56
   89      385.678       585.42
   90      386.138       585.62
   91      386.599        585.9
   92      387.059       585.72
   93      387.519       585.32
   94      387.979       585.28
   95      388.439       584.84
   96      388.899       583.38
   97      389.358       582.48
   98      389.818        582.8
   99      390.278       583.56
  100      390.737       584.38
  101      391.197       585.86
  102      391.656       586.94
  103      392.115       587.02
  104      392.575       586.68
  105      393.034       586.24
  106      393.493       585.82
  107      393.952       586.04
  108      394.411       586.52
  109       394.87       586.82
  110      395.328       587.04
  111      395.787       587.36
  112      396.246       587.62
  113      396.704        587.7
  114      397.163       587.76
  115      397.621       587.82
  116      398.079       587.74
  117      398.537       587.58
  118      398.995       587.64
  119      399.454       587.96
  120      399.911       588.68
  121      400.369       589.18
  122      400.827          589
  123      401.285        588.9
  124      401.743       588.72
  125        402.2       588.08
  126      402.658       587.44
  127      403.115       587.18
  128      403.572       586.62
  129       404.03       586.24
  130      404.487       585.62
  131      404.944       585.28
  132      405.401          585
  133      405.858          585
  134      406.315       584.56
  135      406.771       584.78
  136      407.228       585.04
  137      407.685        585.4
  138      408.141       585.76
  139      408.598       586.56
  140      409.054       586.92
  141       409.51       587.18
  142      409.967        587.4
  143      410.423       587.36
  144      410.879       587.12
  145      411.335       587.04
  146      411.791       586.92
  147      412.246        586.6
  148      412.702       586.58
  149      413.158          587
  150      413.613       587.76
  151      414.069       588.56
  152      414.524       589.24
  153       414.98        589.7
  154      415.435       589.62
  155       415.89       589.44
  156      416.345       589.42
  157        416.8       589.46
  158      417.255       589.66
  159       417.71       589.72
  160      418.165       589.44
  161      418.619       589.36
  162      419.074       589.46
  163      419.529        589.2
  164      419.983       588.86
  165      420.437       588.24
  166      420.892        587.1
  167      421.346       586.38
  168        421.8       585.88
  169      422.254       585.68
  170      422.708       585.96
  171      423.162       586.34
  172      423.616       586.42
  173       424.07       587.06
  174      424.523       587.94
  175      424.977       588.72
  176       425.43        589.5
  177      425.884       589.82
  178      426.337       589.54
  179       426.79       588.98
  180      427.243        588.6
  181      427.697       588.34
  182       428.15       588.18
  183      428.602        587.6
  184      429.055       587.16
  185      429.508       586.82
  186      429.961       586.12
  187      430.413        585.3
  188      430.866       585.18
  189      431.318       585.16
  190      431.771        585.1
  191      432.223       584.88
  192      432.675       585.18
  193      433.127       585.44
  194      433.579       585.36
  195      434.031       584.94
  196      434.483       585.06
  197      434.935        585.2
  198      435.387       585.58
  199      435.838       585.92
  200       436.29       586.34
  201      436.741       586.62
  202      437.193        586.2
  203      437.644       585.38
  204      438.095       585.02
  205      438.546       584.64
  206      438.997       583.92
  207      439.448       583.38
  208      439.899       582.98
  209       440.35       582.64
  210      440.801       582.44
  211      441.251       582.74
  212      441.702       583.78
  213      442.152       584.92
  214      442.603       585.58
  215      443.053       586.56
  216      443.503       587.54
  217      443.954       588.18
  218      444.404       588.46
  219      444.854       588.62
  220      445.304       588.58
  221      445.753       588.44
  222      446.203       587.98
  223      446.653       587.28
  224      447.102       586.66
  225      447.552       585.74
  226      448.001       584.98
  227      448.451       584.82
  228        448.9       585.16
  229      449.349       585.64
  230      449.798       586.06
  231      450.247       586.22
  232      450.696       586.26
  233      451.145        586.1
  234      451.594        585.9
  235      452.042       585.98
  236      452.491       586.16
  237      452.939       585.78
  238      453.388       585.02
  239      453.836       584.32
  240      454.285       584.06
  241      454.733       584.08
  242      455.181       584.34
  243      455.629       585.14
  244      456.077       585.82
  245      456.525       585.98
  246      456.972       585.94
  247       457.42       585.58
  248      457.868       585.26
  249      458.315       585.52
  250      458.763       585.72
  251       459.21       585.58
  252      459.657       585.96
  253      460.104       586.16
  254      460.552       585.88
  255      460.999        585.6
  256      461.446       585.42
  257      461.892       584.94
  258      462.339       584.16
  259      462.786       583.88
  260      463.233        584.3
  261      463.679       584.86
  262      464.125       585.58
  263      464.572        586.7
  264      465.018       587.56
  265      465.464       587.98
  266       465.91       588.26
  267      466.356       588.74
  268      466.802       589.26
  269      467.248       589.42
  270      467.694       589.36
  271       468.14       589.14
  272      468.585        588.8
  273      469.031          588
  274      469.476       587.34
  275      469.922       586.82
  276      470.367        586.7
  277      470.812       586.74
  278      471.257       587.44
  279      471.702       588.36
  280      472.147       588.66
  281      472.592       588.08
  282      473.037          587
  283      473.482        585.8
  284      473.926        584.6
  285      474.371       583.96
  286      474.815       584.16
  287      475.259       584.42
  288      475.704       584.64
  289      476.148       585.24
  290      476.592       585.78
  291      477.036       586.04
  292       477.48       586.32
  293      477.924       586.84
  294      478.368       586.74
  295      478.811       586.42
  296      479.255          586
  297      479.698       585.36
  298      480.142        584.3
  299      480.585       583.36
  300      481.028       582.84
  301      481.472       582.54
  302      481.915       582.56
  303      482.358       582.26
  304      482.801       581.92
  305      483.244        582.1
  306      483.686       582.86
  307      484.129       583.78
  308      484.572       585.16
  309      485.014       586.44
  310      485.456       586.76
  311      485.899       586.62
  312      486.341       586.42
  313      486.783       585.98
  314      487.225       585.72
  315      487.667       585.54
  316      488.109       585.32
  317      488.551        585.3
  318      488.993       585.52
  319      489.434       585.44
  320      489.876       585.28
  321      490.318       585.38
  322      490.759        585.6
  323        491.2        585.7
  324      491.641       586.08
  325      492.083       586.82
  326      492.524        587.2
  327      492.965        586.8
  328      493.406       586.14
  329      493.846        585.3
  330      494.287       584.46
  331      494.728       583.64
  332      495.168       583.04
  333      495.609       582.42
  334      496.049       582.32
  335      496.489       582.16
  336       496.93       582.52
  337       497.37       583.72
  338       497.81       585.18
  339       498.25       585.58
  340       498.69       585.52
  341      499.129       585.06
  342      499.569       583.54
  343      500.009       582.18
  344      500.448        582.1
  345      500.888       582.76
  346      501.327       583.32
  347      501.766       584.34
  348      502.206       585.46
  349      502.645       586.08
  350      503.084       586.68
  351      503.523       587.42
  352      503.961       588.02
  353        504.4       588.36
  354      504.839       588.92
  355      505.277       588.98
  356      505.716       588.56
  357      506.154       587.98
  358      506.593       587.36
  359      507.031       586.88
  360      507.469       587.16
  361      507.907       588.04
  362      508.345       588.88
  363      508.783       589.54
  364      509.221        589.1
  365      509.659       588.06
  366      510.096       587.04
  367      510.534       585.92
  368      510.971       584.92
  369      511.409       584.38
  370      511.846       584.04
  371      512.283        583.9
  372       512.72       584.46
  373      513.157        585.5
  374      513.594        586.9
  375      514.031       587.86
  376      514.468       588.52
  377      514.905        589.1
  378      515.341        588.6
  379      515.778        587.3
  380      516.214        586.5
  381       516.65       585.88
  382      517.087       585.22
  383      517.523        585.4
  384      517.959       586.38
  385      518.395       587.44
  386      518.831        588.1
  387      519.267       588.44
  388      519.702       588.54
  389      520.138       588.16
  390      520.574        587.4
  391      521.009       586.66
  392      521.444       586.14
  393       521.88        585.7
  394      522.315       585.32
  395       522.75       585.24
  396      523.185       585.66
  397       523.62       585.94
  398      524.055       586.18
  399       524.49       586.78
  400      524.924       586.94
  401      525.359          586
  402      525.794       584.74
  403      526.228       583.66
  404      526.662       582.98
  405      527.097       582.78
  406      527.531       583.08
  407      527.965       583.68
  408      528.399       584.46
  409      528.833       584.64
  410      529.267        584.6
  411        529.7       584.82
  412      530.134       584.82
  413      530.568        584.3
  414      531.001       583.92
  415      531.434       583.86
  416      531.868       583.84
  417      532.301       584.32
  418      532.734        584.8
  419      533.167       585.02
  420        533.6        585.2
  421      534.033       585.28
  422      534.466          585
  423      534.898       585.24
  424      535.331       585.32
  425      535.763       584.48
  426      536.196       583.84
  427      536.628       583.76
  428       537.06       583.44
  429      537.493        583.3
  430      537.925       583.56
  431      538.357       583.48
  432      538.788       583.16
  433       539.22       582.72
  434      539.652       582.74
  435      540.084       583.52
  436      540.515       584.62
  437      540.947       585.46
  438      541.378       586.18
  439      541.809       586.74
  440       542.24       586.96
  441      542.672       586.58
  442      543.103        586.4
  443      543.533       586.66
  444      543.964       586.54
  445      544.395        586.1
  446      544.826       586.32
  447      545.256       586.16
  448      545.687       585.46
  449      546.117       585.02
  450      546.547       584.56
  451      546.978       584.04
  452      547.408       583.96
  453      547.838       584.32
  454      548.268        585.1
  455      548.698       586.48
  456      549.127       587.82
  457      549.557       588.84
  458      549.987       589.72
  459      550.416       590.42
  460      550.846        590.3
  461      551.275       589.66
  462      551.704       588.76
  463      552.133        587.9
  464      552.562       586.82
  465      552.991        586.4
  466       553.42       586.54
  467      553.849       586.66
  468      554.278       586.72
  469      554.706        586.8
  470      555.135       586.64
  471      555.563       586.42
  472      555.991       586.62
  473       556.42       587.02
  474      556.848       587.44
  475      557.276        587.4
  476      557.704       587.18
  477      558.132        586.8
  478       558.56        586.5
  479      558.987       586.02
  480      559.415       586.18
  481      559.843       586.86
  482       560.27        587.4
  483      560.697       587.72
  484      561.125       588.38
  485      561.552       588.56
  486      561.979        587.7
  487      562.406       586.92
  488      562.833       586.04
  489       563.26       585.08
  490      563.686       584.68
  491      564.113       585.06
  492       564.54       585.36
  493      564.966       585.48
  494      565.392       585.16
  495      565.819        584.5
  496      566.245       584.18
  497      566.671       584.32
  498      567.097       584.68
  499      567.523       585.18
  500      567.949       585.58
  501      568.374        585.6
  502        568.8       585.56
  503      569.226       585.48
  504      569.651       585.82
  505      570.077       586.24
  506      570.502       586.46
  507      570.927        586.7
  508      571.352        586.8
  509      571.777       586.32
  510      572.202       585.48
  511      572.627       584.44
  512      573.052       583.46
  513      573.476       582.92
  514      573.901        582.5
  515      574.325        582.5
  516       574.75       583.24
  517      575.174       584.04
  518      575.598       584.24
  519      576.022       584.88
  520      576.446       585.76
  521       576.87       586.24
  522      577.294       586.42
  523      577.718       586.74
  524      578.142       586.72
  525      578.565       586.62
  526      578.989       586.68
  527      579.412        586.9
  528      579.835       587.32
  529      580.259       587.92
  530      580.682       588.16
  531      581.105       588.08
  532      581.528       587.64
  533      581.951       587.06
  534      582.373        586.4
  535      582.796       586.14
  536      583.219       586.68
  537      583.641       589.04
  538      584.063        593.6
  539      584.486       601.06
  540      584.908          612
  541       585.33       624.62
  542      585.752        635.8
  543      586.174       642.64
  544      586.596       643.14
  545      587.018       637.44
  546      587.439       628.26
  547      587.861       618.56
  548      588.282       610.94
  549      588.704       606.84
  550      589.125        604.9
  551      589.546       603.36
  552      589.967       601.34
  553      590.388       599.06
  554      590.809       596.56
  555       591.23       594.12
  556      591.651       591.62
  557      592.071       589.96
  558      592.492       589.38
  559      592.912        589.7
  560      593.333        591.4
  561      593.753        595.4
  562      594.173       600.74
  563      594.593       606.28
  564      595.013       611.56
  565      595.433       614.86
  566      595.853       615.38
  567      596.273       613.56
  568      596.693       610.62
  569      597.112       607.06
  570      597.532          604
  571      597.951       601.76
  572       598.37        600.1
  573      598.789       598.26
  574      599.208        595.8
  575      599.627       593.58
  576      600.046       591.52
  577      600.465       589.88
  578      600.884        589.3
  579      601.303       589.58
  580      601.721        590.1
  581      602.139       591.46
  582      602.558        593.5
  583      602.976       595.18
  584      603.394       596.62
  585      603.812       597.96
  586       604.23       598.24
  587      604.648       597.54
  588      605.066       596.48
  589      605.484        595.3
  590      605.901       594.64
  591      606.319       595.86
  592      606.736       598.82
  593      607.154        603.5
  594      607.571       609.86
  595      607.988        616.7
  596      608.405       622.46
  597      608.822       627.86
  598      609.239          634
  599      609.656       640.72
  600      610.072       646.04
  601      610.489       648.66
  602      610.905       647.04
  603      611.322        640.5
  604      611.738       630.02
  605      612.154        618.9
  606       612.57       610.94
  607      612.986       608.58
  608      613.402       613.44
  609      613.818       627.12
  610      614.234        646.9
