scansci Spectrometer Data File
--- Measurement Setting ---
Type: Sample Spectrum
Date: Mon Oct 16 17:39:19 2023
User: (Reserved by scansci)
Serial: (Reserved by scansci)
Channel: No. 11
Integration Time: 1
Average: 10
Boxcar: 2
Electrical Dark: No-corrected
Time Normalize: (Reserved by scansci)
Dual-beam: (Reserved by scansci)
Reference Ch: (Reserved by scansci)
--- Measurement Data ---
Pixel   Wavelength   Intensity
    0        162.5      662.533
    1      162.985      662.225
    2      163.469        661.9
    3      163.954          662
    4      164.439        662.2
    5      164.923        661.7
    6      165.408       661.28
    7      165.892       661.06
    8      166.377       660.46
    9      166.861       659.74
   10      167.345       659.84
   11       167.83       660.64
   12      168.314       661.28
   13      168.798       661.44
   14      169.282        661.5
   15      169.766       660.74
   16       170.25        659.4
   17      170.734       658.22
   18      171.218       657.56
   19      171.702       657.42
   20      172.185       658.06
   21      172.669       659.14
   22      173.153       660.44
   23      173.636       661.42
   24       174.12       662.46
   25      174.603       663.34
   26      175.087       663.52
   27       175.57       663.36
   28      176.053        663.4
   29      176.537       662.94
   30       177.02       662.28
   31      177.503       662.18
   32      177.986       662.14
   33      178.469       661.98
   34      178.952       661.78
   35      179.435       661.18
   36      179.918       660.78
   37      180.401       660.64
   38      180.884       660.34
   39      181.366       660.66
   40      181.849       662.02
   41      182.332       663.06
   42      182.814       663.74
   43      183.297       664.48
   44      183.779       664.44
   45      184.262        663.4
   46      184.744       662.02
   47      185.226       660.68
   48      185.708       659.56
   49      186.191       658.88
   50      186.673       658.64
   51      187.155       658.88
   52      187.637       659.32
   53      188.119        659.6
   54        188.6       660.06
   55      189.082       660.38
   56      189.564       660.62
   57      190.046       660.88
   58      190.527       661.16
   59      191.009       661.44
   60      191.491       661.82
   61      191.972       661.88
   62      192.454       661.76
   63      192.935        661.5
   64      193.416       661.08
   65      193.897       661.06
   66      194.379       661.66
   67       194.86       661.98
   68      195.341       662.36
   69      195.822       662.36
   70      196.303       661.72
   71      196.784       660.72
   72      197.265       660.32
   73      197.746       660.44
   74      198.226       660.62
   75      198.707       660.94
   76      199.188       661.32
   77      199.668       661.48
   78      200.149       661.02
   79      200.629       660.54
   80       201.11       660.32
   81       201.59       660.24
   82       202.07        660.2
   83       202.55       660.24
   84      203.031        660.6
   85      203.511       660.94
   86      203.991       661.06
   87      204.471       660.76
   88      204.951       660.42
   89      205.431       660.72
   90       205.91       661.54
   91       206.39       662.36
   92       206.87        663.2
   93      207.349          664
   94      207.829       664.18
   95      208.309        663.9
   96      208.788       663.78
   97      209.267       663.96
   98      209.747       663.86
   99      210.226       663.32
  100      210.705       662.66
  101      211.185       661.96
  102      211.664       661.28
  103      212.143       661.26
  104      212.622       661.36
  105      213.101       661.16
  106      213.579        661.2
  107      214.058        661.7
  108      214.537        662.8
  109      215.016       664.44
  110      215.494       665.98
  111      215.973        666.9
  112      216.452       667.32
  113       216.93       666.92
  114      217.408       665.84
  115      217.887        664.9
  116      218.365       663.84
  117      218.843       662.34
  118      219.321       660.84
  119      219.799       659.88
  120      220.278       659.42
  121      220.755        659.7
  122      221.233       660.66
  123      221.711       661.72
  124      222.189       662.54
  125      222.667        663.1
  126      223.144       663.54
  127      223.622       663.86
  128        224.1       664.44
  129      224.577       665.52
  130      225.055       666.26
  131      225.532       666.22
  132      226.009        665.8
  133      226.486        664.9
  134      226.964       663.26
  135      227.441       661.92
  136      227.918        660.8
  137      228.395        660.1
  138      228.872       659.82
  139      229.349       659.86
  140      229.826       659.98
  141      230.302       660.54
  142      230.779       661.34
  143      231.256       661.78
  144      231.732       661.64
  145      232.209       661.04
  146      232.685       660.22
  147      233.162       659.36
  148      233.638       658.68
  149      234.114       658.56
  150       234.59        659.5
  151      235.066        660.8
  152      235.543       661.54
  153      236.019       662.68
  154      236.495       664.02
  155       236.97       665.04
  156      237.446          665
  157      237.922       664.74
  158      238.398       664.66
  159      238.873       664.38
  160      239.349       663.76
  161      239.824        663.8
  162        240.3       664.26
  163      240.775        664.2
  164      241.251       664.14
  165      241.726        664.1
  166      242.201       664.16
  167      242.676       664.46
  168      243.151       664.46
  169      243.626        664.2
  170      244.101       664.18
  171      244.576       664.16
  172      245.051       663.72
  173      245.526       663.58
  174          246       663.66
  175      246.475       663.48
  176       246.95       663.78
  177      247.424        664.1
  178      247.899          664
  179      248.373       663.74
  180      248.847       663.54
  181      249.321       662.84
  182      249.796       662.32
  183       250.27       662.38
  184      250.744       662.96
  185      251.218       663.18
  186      251.692       662.76
  187      252.166       662.18
  188      252.639        661.8
  189      253.113       661.22
  190      253.587       660.92
  191       254.06       661.52
  192      254.534       662.44
  193      255.007       662.88
  194      255.481       662.84
  195      255.954       662.48
  196      256.427       661.92
  197      256.901       661.38
  198      257.374       661.04
  199      257.847       661.04
  200       258.32       661.68
  201      258.793       662.52
  202      259.266       663.14
  203      259.739       663.72
  204      260.211       664.18
  205      260.684        664.3
  206      261.157       664.36
  207      261.629       664.36
  208      262.102       664.04
  209      262.574       663.52
  210      263.046        662.8
  211      263.519       662.28
  212      263.991       662.06
  213      264.463       662.06
  214      264.935        662.1
  215      265.407       661.98
  216      265.879       661.26
  217      266.351       660.18
  218      266.823       659.08
  219      267.295       659.02
  220      267.766        660.1
  221      268.238       661.44
  222       268.71        662.9
  223      269.181        664.1
  224      269.653       664.14
  225      270.124       663.72
  226      270.595        663.3
  227      271.066       662.68
  228      271.538        662.2
  229      272.009        661.6
  230       272.48       660.58
  231      272.951       659.66
  232      273.422        658.9
  233      273.892       658.06
  234      274.363       657.64
  235      274.834        657.7
  236      275.305       657.92
  237      275.775       658.76
  238      276.246       660.32
  239      276.716       661.48
  240      277.186       661.58
  241      277.657       660.86
  242      278.127       659.74
  243      278.597       658.68
  244      279.067       657.94
  245      279.537       657.96
  246      280.007       659.06
  247      280.477       660.16
  248      280.947       660.74
  249      281.417       661.84
  250      281.886       663.14
  251      282.356        663.4
  252      282.825        663.5
  253      283.295       663.52
  254      283.764       662.88
  255      284.234       661.68
  256      284.703       660.94
  257      285.172       660.42
  258      285.641       659.86
  259       286.11        659.8
  260      286.579       660.28
  261      287.048       661.04
  262      287.517       661.74
  263      287.986        662.6
  264      288.454       663.32
  265      288.923       663.74
  266      289.392       663.78
  267       289.86        663.5
  268      290.329       662.74
  269      290.797       661.84
  270      291.265       661.28
  271      291.734       661.12
  272      292.202       661.22
  273       292.67        661.7
  274      293.138        661.7
  275      293.606        661.5
  276      294.074       661.28
  277      294.541       660.52
  278      295.009       659.94
  279      295.477          660
  280      295.944       660.14
  281      296.412        660.6
  282      296.879       661.72
  283      297.347       662.64
  284      297.814       663.86
  285      298.281       664.86
  286      298.749       664.94
  287      299.216       664.64
  288      299.683       664.22
  289       300.15       662.94
  290      300.616       661.58
  291      301.083        661.2
  292       301.55       661.58
  293      302.017       661.82
  294      302.483        661.8
  295       302.95       662.04
  296      303.416       661.48
  297      303.883       660.06
  298      304.349       659.28
  299      304.815        659.8
  300      305.281        660.2
  301      305.748       660.94
  302      306.214       662.02
  303       306.68       662.74
  304      307.146       662.82
  305      307.611       663.26
  306      308.077       663.96
  307      308.543       664.48
  308      309.008       664.72
  309      309.474        664.5
  310      309.939        663.9
  311      310.405        663.1
  312       310.87        662.6
  313      311.335       662.42
  314        311.8        662.5
  315      312.266       662.32
  316      312.731       661.76
  317      313.196       661.14
  318       313.66       660.44
  319      314.125       659.92
  320       314.59       659.72
  321      315.055       659.72
  322      315.519        660.1
  323      315.984       660.38
  324      316.448       660.64
  325      316.913       660.88
  326      317.377       661.02
  327      317.841       660.48
  328      318.305       660.58
  329      318.769       661.16
  330      319.233       661.72
  331      319.697       662.34
  332      320.161       662.54
  333      320.625       661.76
  334      321.089       659.94
  335      321.552       658.44
  336      322.016       657.78
  337      322.479       657.84
  338      322.943       658.58
  339      323.406       660.18
  340      323.869       661.08
  341      324.333       660.82
  342      324.796       660.46
  343      325.259       660.22
  344      325.722        660.1
  345      326.185        660.5
  346      326.647       661.06
  347       327.11       661.64
  348      327.573        662.1
  349      328.035       662.12
  350      328.498       661.64
  351       328.96       661.38
  352      329.423       661.22
  353      329.885       660.74
  354      330.347       660.06
  355       330.81        660.1
  356      331.272       660.04
  357      331.734       659.78
  358      332.196       659.72
  359      332.657       659.94
  360      333.119       659.82
  361      333.581       659.46
  362      334.043       658.62
  363      334.504       657.96
  364      334.966       657.92
  365      335.427        658.1
  366      335.888       658.92
  367       336.35        660.5
  368      336.811        661.8
  369      337.272        661.7
  370      337.733       661.02
  371      338.194       660.02
  372      338.655       658.82
  373      339.115        658.4
  374      339.576       659.48
  375      340.037       660.78
  376      340.497       661.62
  377      340.958       662.44
  378      341.418       662.96
  379      341.879        662.9
  380      342.339        662.6
  381      342.799       662.34
  382      343.259       661.94
  383      343.719        661.3
  384      344.179       660.92
  385      344.639       660.82
  386      345.099       661.06
  387      345.559       661.42
  388      346.018        661.8
  389      346.478       662.04
  390      346.937        662.2
  391      347.397       661.96
  392      347.856       661.76
  393      348.315        661.3
  394      348.774        660.6
  395      349.234       660.72
  396      349.693       661.36
  397      350.152        661.4
  398       350.61       661.12
  399      351.069       661.14
  400      351.528       660.94
  401      351.987       660.68
  402      352.445       660.76
  403      352.904       661.24
  404      353.362       661.74
  405       353.82       661.98
  406      354.279       661.96
  407      354.737       661.96
  408      355.195       661.92
  409      355.653       662.02
  410      356.111       661.66
  411      356.569        661.1
  412      357.027       660.48
  413      357.484       659.52
  414      357.942       658.28
  415      358.399       657.84
  416      358.857       658.26
  417      359.314       658.86
  418      359.772       659.52
  419      360.229       659.92
  420      360.686       660.06
  421      361.143       660.04
  422        361.6       660.12
  423      362.057       661.04
  424      362.514       662.44
  425      362.971       663.64
  426      363.427       664.04
  427      363.884       663.84
  428       364.34       663.06
  429      364.797       662.18
  430      365.253       661.74
  431      365.709       661.36
  432      366.166       660.94
  433      366.622        660.7
  434      367.078       660.46
  435      367.534       659.62
  436       367.99       659.06
  437      368.445       658.98
  438      368.901       658.52
  439      369.357        657.5
  440      369.812       656.96
  441      370.268       657.04
  442      370.723       657.46
  443      371.179        658.3
  444      371.634        659.5
  445      372.089        660.7
  446      372.544        661.6
  447      372.999        662.2
  448      373.454       662.92
  449      373.909       663.72
  450      374.364          664
  451      374.818        663.7
  452      375.273       663.36
  453      375.727          663
  454      376.182        662.4
  455      376.636        662.5
  456       377.09        663.4
  457      377.545       664.06
  458      377.999       663.88
  459      378.453        663.5
  460      378.907        662.8
  461      379.361       662.02
  462      379.814       661.62
  463      380.268       661.66
  464      380.722        661.6
  465      381.175        661.1
  466      381.629          661
  467      382.082       660.78
  468      382.535       660.42
  469      382.989       660.22
  470      383.442          660
  471      383.895        659.5
  472      384.348       659.22
  473      384.801       658.96
  474      385.253       658.46
  475      385.706       657.66
  476      386.159       656.62
  477      386.611       656.14
  478      387.064       655.94
  479      387.516       656.36
  480      387.968       657.72
  481      388.421        658.9
  482      388.873       659.42
  483      389.325        659.9
  484      389.777       659.88
  485      390.229       659.74
  486      390.681       659.94
  487      391.132       660.34
  488      391.584        661.2
  489      392.035       662.54
  490      392.487        662.9
  491      392.938        662.7
  492       393.39       662.92
  493      393.841       663.04
  494      394.292       663.02
  495      394.743       663.24
  496      395.194       663.94
  497      395.645       664.16
  498      396.096       663.66
  499      396.546       663.12
  500      396.997       663.02
  501      397.448       662.52
  502      397.898       661.92
  503      398.349       661.68
  504      398.799       661.34
  505      399.249       660.66
  506      399.699        659.8
  507      400.149       658.84
  508      400.599       657.66
  509      401.049        656.7
  510      401.499       655.94
  511      401.949       655.42
  512      402.398       655.56
  513      402.848       655.98
  514      403.297       656.48
  515      403.747       657.74
  516      404.196        659.7
  517      404.645       660.92
  518      405.094       661.86
  519      405.543       662.82
  520      405.992       663.16
  521      406.441       663.14
  522       406.89       663.22
  523      407.339       663.04
  524      407.787       662.62
  525      408.236        662.6
  526      408.684       662.62
  527      409.132       662.68
  528      409.581       662.84
  529      410.029        662.7
  530      410.477       661.72
  531      410.925       660.46
  532      411.373        659.5
  533      411.821       659.08
  534      412.269       659.62
  535      412.716       660.96
  536      413.164        662.2
  537      413.611       663.58
  538      414.059       664.68
  539      414.506       664.38
  540      414.953       663.62
  541        415.4          663
  542      415.847       661.88
  543      416.294        660.4
  544      416.741        659.6
  545      417.188        659.3
  546      417.635       658.98
  547      418.081       658.82
  548      418.528       659.24
  549      418.974       659.56
  550      419.421       660.06
  551      419.867       661.02
  552      420.313        661.9
  553      420.759       662.46
  554      421.205       663.34
  555      421.651       663.34
  556      422.097       662.64
  557      422.543       661.52
  558      422.989       660.92
  559      423.434       661.18
  560       423.88        661.8
  561      424.325       662.42
  562       424.77       663.04
  563      425.216       663.34
  564      425.661       663.22
  565      426.106       663.14
  566      426.551       662.44
  567      426.996       661.88
  568       427.44       661.42
  569      427.885       660.62
  570       428.33       659.52
  571      428.774       659.28
  572      429.219        659.5
  573      429.663       659.84
  574      430.107       660.26
  575      430.551       661.12
  576      430.996          662
  577       431.44       662.48
  578      431.883       662.84
  579      432.327       663.38
  580      432.771        663.8
  581      433.215        664.2
  582      433.658        664.1
  583      434.102       663.22
  584      434.545       662.44
  585      434.988       662.14
  586      435.431       661.96
  587      435.875       662.56
  588      436.318        663.9
  589      436.761       664.22
  590      437.203       663.66
  591      437.646       662.98
  592      438.089        662.1
  593      438.531        661.2
  594      438.974       660.72
  595      439.416       660.48
  596      439.859       660.22
  597      440.301       659.94
  598      440.743       659.66
  599      441.185       659.54
  600      441.627       659.32
  601      442.069       659.14
  602       442.51        659.6
  603      442.952        660.4
  604      443.394        660.9
  605      443.835       661.86
  606      444.277        662.9
  607      444.718       663.46
  608      445.159       663.56
  609        445.6       663.42
  610      446.041       662.88
