scansci Spectrometer Data File
--- Measurement Setting ---
Type: Sample Spectrum
Date: Mon Oct 16 15:06:50 2023
User: (Reserved by scansci)
Serial: (Reserved by scansci)
Channel: No. 11
Integration Time: 1
Average: 10
Boxcar: 2
Electrical Dark: No-corrected
Time Normalize: (Reserved by scansci)
Dual-beam: (Reserved by scansci)
Reference Ch: (Reserved by scansci)
--- Measurement Data ---
Pixel   Wavelength   Intensity
    0        344.4          600
    1      344.867      599.625
    2      345.334        599.1
    3      345.801       599.12
    4      346.268       599.22
    5      346.735       599.08
    6      347.202       599.02
    7      347.669       599.38
    8      348.135       599.52
    9      348.602       599.28
   10      349.068       599.54
   11      349.535       600.24
   12      350.001        600.8
   13      350.467        601.2
   14      350.933       601.58
   15      351.399       602.04
   16      351.866       602.44
   17      352.331       602.98
   18      352.797       603.16
   19      353.263       602.62
   20      353.729       601.64
   21      354.194       600.48
   22       354.66       599.12
   23      355.126       598.28
   24      355.591       598.14
   25      356.056       598.06
   26      356.522       598.46
   27      356.987       598.86
   28      357.452       598.78
   29      357.917       598.64
   30      358.382       598.74
   31      358.847       598.54
   32      359.312       598.34
   33      359.776        598.8
   34      360.241       599.18
   35      360.706       599.24
   36       361.17        599.2
   37      361.634        599.1
   38      362.099       598.48
   39      362.563       597.52
   40      363.027        596.9
   41      363.491       596.24
   42      363.955       595.74
   43      364.419        595.8
   44      364.883       596.14
   45      365.347        596.4
   46      365.811       596.84
   47      366.274       597.52
   48      366.738       597.84
   49      367.201       598.14
   50      367.665       598.74
   51      368.128        599.1
   52      368.592       598.74
   53      369.055       598.46
   54      369.518       598.24
   55      369.981       597.62
   56      370.444       597.66
   57      370.907       598.42
   58       371.37       599.02
   59      371.832       599.26
   60      372.295        599.3
   61      372.757       598.78
   62       373.22       597.98
   63      373.682       597.88
   64      374.145       598.38
   65      374.607       598.78
   66      375.069       599.02
   67      375.531        599.7
   68      375.993       599.92
   69      376.455        599.7
   70      376.917       599.38
   71      377.379        599.3
   72      377.841          599
   73      378.302       598.66
   74      378.764        598.4
   75      379.225        598.4
   76      379.687       598.48
   77      380.148       598.34
   78      380.609       598.38
   79      381.071        598.5
   80      381.532       598.36
   81      381.993       597.98
   82      382.454       597.58
   83      382.915       596.62
   84      383.375       595.72
   85      383.836       595.46
   86      384.297       595.18
   87      384.757       594.84
   88      385.218       595.26
   89      385.678       595.88
   90      386.138        596.1
   91      386.599       596.16
   92      387.059       596.48
   93      387.519       596.34
   94      387.979       596.28
   95      388.439       596.44
   96      388.899       596.64
   97      389.358       596.72
   98      389.818       596.64
   99      390.278       596.14
  100      390.737       595.76
  101      391.197       595.62
  102      391.656        595.6
  103      392.115       596.12
  104      392.575       596.84
  105      393.034        597.6
  106      393.493       598.52
  107      393.952       599.42
  108      394.411       599.82
  109       394.87       599.84
  110      395.328       599.46
  111      395.787        599.3
  112      396.246       598.82
  113      396.704       598.02
  114      397.163       597.78
  115      397.621       597.88
  116      398.079       597.66
  117      398.537       597.72
  118      398.995        598.4
  119      399.454        598.8
  120      399.911       598.48
  121      400.369        597.7
  122      400.827       596.68
  123      401.285       595.62
  124      401.743       594.62
  125        402.2       593.88
  126      402.658       593.64
  127      403.115       593.94
  128      403.572       594.34
  129       404.03       594.36
  130      404.487       594.18
  131      404.944       594.14
  132      405.401          594
  133      405.858       593.48
  134      406.315        593.5
  135      406.771       594.38
  136      407.228          595
  137      407.685       595.34
  138      408.141       596.02
  139      408.598        596.8
  140      409.054       597.42
  141       409.51       597.94
  142      409.967       598.18
  143      410.423       598.08
  144      410.879        597.6
  145      411.335       596.94
  146      411.791       596.84
  147      412.246       597.12
  148      412.702       597.24
  149      413.158       597.62
  150      413.613       598.38
  151      414.069       599.22
  152      414.524        599.9
  153       414.98       601.04
  154      415.435       601.62
  155       415.89       601.38
  156      416.345       600.86
  157        416.8       600.12
  158      417.255       599.02
  159       417.71        598.5
  160      418.165       598.42
  161      418.619       597.94
  162      419.074       597.74
  163      419.529       597.72
  164      419.983       597.92
  165      420.437       598.28
  166      420.892        598.7
  167      421.346       599.06
  168        421.8       599.38
  169      422.254       598.94
  170      422.708       598.16
  171      423.162        597.8
  172      423.616       597.62
  173       424.07       597.76
  174      424.523       598.42
  175      424.977        598.9
  176       425.43       599.14
  177      425.884        599.4
  178      426.337       599.48
  179       426.79       599.24
  180      427.243       599.36
  181      427.697        599.5
  182       428.15       599.38
  183      428.602       599.16
  184      429.055       599.18
  185      429.508       599.48
  186      429.961       599.38
  187      430.413       599.08
  188      430.866       599.04
  189      431.318       599.12
  190      431.771       598.88
  191      432.223       599.08
  192      432.675       599.96
  193      433.127        600.7
  194      433.579        601.1
  195      434.031       600.52
  196      434.483       599.44
  197      434.935        598.3
  198      435.387        597.5
  199      435.838       596.98
  200       436.29       597.42
  201      436.741       598.24
  202      437.193       598.66
  203      437.644       598.98
  204      438.095       599.06
  205      438.546       599.18
  206      438.997       599.46
  207      439.448       599.82
  208      439.899        599.3
  209       440.35       598.68
  210      440.801        598.1
  211      441.251       598.06
  212      441.702        598.7
  213      442.152       599.72
  214      442.603       600.66
  215      443.053       601.66
  216      443.503       602.18
  217      443.954        601.8
  218      444.404       601.28
  219      444.854       600.46
  220      445.304        598.8
  221      445.753       597.14
  222      446.203       596.36
  223      446.653       596.14
  224      447.102       596.52
  225      447.552       597.44
  226      448.001       598.28
  227      448.451       598.72
  228        448.9       599.14
  229      449.349       599.84
  230      449.798       600.76
  231      450.247       601.04
  232      450.696       600.52
  233      451.145       599.66
  234      451.594       598.78
  235      452.042       598.16
  236      452.491        597.8
  237      452.939       598.12
  238      453.388       598.76
  239      453.836       599.22
  240      454.285       599.26
  241      454.733        599.4
  242      455.181       599.34
  243      455.629       599.04
  244      456.077        598.4
  245      456.525       598.06
  246      456.972        598.3
  247       457.42        598.4
  248      457.868       598.46
  249      458.315        598.7
  250      458.763        598.9
  251       459.21        598.8
  252      459.657       598.84
  253      460.104       599.08
  254      460.552       599.24
  255      460.999       599.12
  256      461.446       599.08
  257      461.892       599.04
  258      462.339        598.7
  259      462.786       598.34
  260      463.233       598.62
  261      463.679       598.16
  262      464.125       596.96
  263      464.572        596.2
  264      465.018       595.62
  265      465.464       594.76
  266       465.91       594.88
  267      466.356       596.02
  268      466.802       597.04
  269      467.248       597.68
  270      467.694       597.76
  271       468.14       597.78
  272      468.585       597.56
  273      469.031       597.02
  274      469.476       596.78
  275      469.922        597.2
  276      470.367       597.56
  277      470.812        597.9
  278      471.257        598.2
  279      471.702       598.44
  280      472.147       598.64
  281      472.592       598.18
  282      473.037       597.38
  283      473.482       596.58
  284      473.926       595.94
  285      474.371       595.28
  286      474.815       595.02
  287      475.259       595.22
  288      475.704        596.1
  289      476.148        597.1
  290      476.592       597.78
  291      477.036       598.46
  292       477.48        599.2
  293      477.924       599.36
  294      478.368       599.22
  295      478.811       599.02
  296      479.255       598.84
  297      479.698       598.72
  298      480.142       598.86
  299      480.585       598.66
  300      481.028       598.64
  301      481.472       598.68
  302      481.915       598.46
  303      482.358       598.36
  304      482.801        598.7
  305      483.244       598.88
  306      483.686       598.82
  307      484.129       598.58
  308      484.572       598.14
  309      485.014        598.1
  310      485.456       597.94
  311      485.899       597.76
  312      486.341       598.08
  313      486.783        598.4
  314      487.225       598.06
  315      487.667        598.1
  316      488.109       598.12
  317      488.551       597.82
  318      488.993       597.68
  319      489.434       597.88
  320      489.876       597.98
  321      490.318        598.1
  322      490.759       598.28
  323        491.2       598.56
  324      491.641          599
  325      492.083       599.22
  326      492.524       599.52
  327      492.965       599.76
  328      493.406       599.64
  329      493.846       599.42
  330      494.287       599.16
  331      494.728       598.72
  332      495.168        598.5
  333      495.609       598.46
  334      496.049       598.12
  335      496.489       597.96
  336       496.93        598.4
  337       497.37        598.7
  338       497.81        598.9
  339       498.25       599.42
  340       498.69       599.68
  341      499.129       599.28
  342      499.569       598.74
  343      500.009       598.14
  344      500.448       597.48
  345      500.888       597.22
  346      501.327       597.36
  347      501.766       597.74
  348      502.206        597.9
  349      502.645        597.7
  350      503.084       597.46
  351      503.523       597.48
  352      503.961        597.3
  353        504.4       597.64
  354      504.839       598.58
  355      505.277       599.46
  356      505.716       599.82
  357      506.154        599.8
  358      506.593       599.44
  359      507.031       598.64
  360      507.469       597.64
  361      507.907       596.94
  362      508.345       596.98
  363      508.783        597.2
  364      509.221       597.32
  365      509.659       597.42
  366      510.096       597.56
  367      510.534       597.56
  368      510.971       597.08
  369      511.409       596.66
  370      511.846       596.24
  371      512.283       595.68
  372       512.72       595.56
  373      513.157       595.88
  374      513.594       596.32
  375      514.031       597.12
  376      514.468       597.94
  377      514.905       597.66
  378      515.341       597.24
  379      515.778       597.22
  380      516.214       597.32
  381       516.65       597.76
  382      517.087       598.62
  383      517.523       599.46
  384      517.959       600.04
  385      518.395       600.14
  386      518.831       599.76
  387      519.267       599.34
  388      519.702       599.06
  389      520.138       598.74
  390      520.574       598.42
  391      521.009        598.3
  392      521.444       598.64
  393       521.88       599.06
  394      522.315       599.06
  395       522.75       598.78
  396      523.185       597.76
  397       523.62        596.3
  398      524.055       595.02
  399       524.49       594.24
  400      524.924       594.58
  401      525.359       596.06
  402      525.794        597.8
  403      526.228       599.06
  404      526.662       600.24
  405      527.097       600.64
  406      527.531       600.16
  407      527.965        599.3
  408      528.399        598.6
  409      528.833       598.16
  410      529.267       597.78
  411        529.7       597.74
  412      530.134       597.54
  413      530.568       596.96
  414      531.001          596
  415      531.434       595.46
  416      531.868       595.32
  417      532.301       595.56
  418      532.734       596.04
  419      533.167       596.78
  420        533.6       597.06
  421      534.033          597
  422      534.466        597.4
  423      534.898        598.2
  424      535.331       598.44
  425      535.763       598.42
  426      536.196        598.5
  427      536.628       598.42
  428       537.06       598.56
  429      537.493       599.24
  430      537.925       600.54
  431      538.357       601.56
  432      538.788       602.08
  433       539.22       602.04
  434      539.652       601.82
  435      540.084        601.2
  436      540.515       600.46
  437      540.947       599.98
  438      541.378       599.34
  439      541.809        598.7
  440       542.24       598.38
  441      542.672       598.36
  442      543.103       598.22
  443      543.533       598.48
  444      543.964       598.88
  445      544.395       599.02
  446      544.826        599.2
  447      545.256       599.48
  448      545.687        599.8
  449      546.117        600.2
  450      546.547       600.76
  451      546.978        600.8
  452      547.408       600.56
  453      547.838       600.34
  454      548.268       599.92
  455      548.698       599.56
  456      549.127       599.76
  457      549.557       600.04
  458      549.987       600.16
  459      550.416       600.06
  460      550.846       599.44
  461      551.275       598.78
  462      551.704       598.26
  463      552.133       597.76
  464      552.562       597.56
  465      552.991       597.88
  466       553.42       597.86
  467      553.849        598.1
  468      554.278       598.52
  469      554.706       598.76
  470      555.135       599.04
  471      555.563       600.04
  472      555.991       601.16
  473       556.42       602.06
  474      556.848       602.68
  475      557.276       602.94
  476      557.704        603.2
  477      558.132        603.4
  478       558.56        603.7
  479      558.987       604.26
  480      559.415       604.68
  481      559.843       604.22
  482       560.27       604.04
  483      560.697       604.34
  484      561.125        604.4
  485      561.552       604.66
  486      561.979       605.08
  487      562.406       604.68
  488      562.833       603.98
  489       563.26       604.16
  490      563.686       604.88
  491      564.113       606.08
  492       564.54       607.48
  493      564.966       608.58
  494      565.392       609.44
  495      565.819        610.3
  496      566.245        611.3
  497      566.671       613.84
  498      567.097       620.28
  499      567.523          632
  500      567.949       648.32
  501      568.374       666.06
  502        568.8       679.84
  503      569.226       685.96
  504      569.651       683.48
  505      570.077       673.36
  506      570.502       660.02
  507      570.927       648.52
  508      571.352       640.62
  509      571.777       635.48
  510      572.202        632.5
  511      572.627        630.9
  512      573.052       629.98
  513      573.476       630.08
  514      573.901       631.56
  515      574.325        634.3
  516       574.75       637.66
  517      575.174       641.86
  518      575.598          646
  519      576.022        649.6
  520      576.446       652.68
  521       576.87          656
  522      577.294       659.34
  523      577.718       662.76
  524      578.142        666.3
  525      578.565        669.8
  526      578.989        672.8
  527      579.412       675.08
  528      579.835       676.92
  529      580.259       680.34
  530      580.682       687.42
  531      581.105        699.2
  532      581.528       717.14
  533      581.951       743.14
  534      582.373        778.2
  535      582.796       822.14
  536      583.219       873.72
  537      583.641        931.2
  538      584.063       990.54
  539      584.486       1045.9
  540      584.908      1094.18
  541       585.33      1135.16
  542      585.752      1169.32
  543      586.174      1203.42
  544      586.596      1275.18
  545      587.018      1569.24
  546      587.439      2541.58
  547      587.861      4697.28
  548      588.282      7718.42
  549      588.704      10694.6
  550      589.125      13442.7
  551      589.546      15507.2
  552      589.967      16376.5
  553      590.388      15469.4
  554      590.809      13737.7
  555       591.23      11481.5
  556      591.651       8899.4
  557      592.071      6120.62
  558      592.492      4115.74
  559      592.912      2857.58
  560      593.333      2077.24
  561      593.753      1594.52
  562      594.173      1296.46
  563      594.593         1112
  564      595.013       996.16
  565      595.433       919.46
  566      595.853       864.92
  567      596.273          824
  568      596.693       792.54
  569      597.112       767.66
  570      597.532       747.86
  571      597.951       732.06
  572       598.37       719.32
  573      598.789       708.42
  574      599.208       698.14
  575      599.627       688.74
  576      600.046       680.32
  577      600.465       672.58
  578      600.884       665.42
  579      601.303        659.5
  580      601.721       654.46
  581      602.139       649.66
  582      602.558       645.16
  583      602.976        641.1
  584      603.394       637.44
  585      603.812       633.86
  586       604.23       630.74
  587      604.648       628.34
  588      605.066       626.18
  589      605.484       624.06
  590      605.901       621.94
  591      606.319       620.12
  592      606.736       618.42
  593      607.154       616.92
  594      607.571       615.26
  595      607.988       613.72
  596      608.405        612.4
  597      608.822       611.26
  598      609.239        609.9
  599      609.656       608.94
  600      610.072       608.58
  601      610.489       608.14
  602      610.905       607.54
  603      611.322        607.3
  604      611.738       607.18
  605      612.154       606.96
  606       612.57       606.92
  607      612.986       607.12
  608      613.402       607.74
  609      613.818       608.52
  610      614.234       610.08
