scansci Spectrometer Data File
--- Measurement Setting ---
Type: Sample Spectrum
Date: Mon Oct 16 15:51:08 2023
User: (Reserved by scansci)
Serial: (Reserved by scansci)
Channel: No. 11
Integration Time: 1
Average: 10
Boxcar: 2
Electrical Dark: No-corrected
Time Normalize: (Reserved by scansci)
Dual-beam: (Reserved by scansci)
Reference Ch: (Reserved by scansci)
--- Measurement Data ---
Pixel   Wavelength   Intensity
    0        162.5      623.867
    1      162.985      624.925
    2      163.469       625.22
    3      163.954       625.62
    4      164.439        625.5
    5      164.923       625.12
    6      165.408       624.86
    7      165.892       624.76
    8      166.377       625.18
    9      166.861       625.66
   10      167.345       624.96
   11       167.83       623.72
   12      168.314       623.26
   13      168.798       623.14
   14      169.282       623.02
   15      169.766       623.56
   16       170.25        624.4
   17      170.734       624.82
   18      171.218       625.22
   19      171.702       625.88
   20      172.185       626.42
   21      172.669        626.8
   22      173.153       627.12
   23      173.636       627.58
   24       174.12        628.1
   25      174.603       629.08
   26      175.087       629.72
   27       175.57       629.84
   28      176.053       629.38
   29      176.537       628.48
   30       177.02        627.7
   31      177.503        627.8
   32      177.986       629.04
   33      178.469        630.4
   34      178.952       631.84
   35      179.435       633.14
   36      179.918       633.54
   37      180.401       633.82
   38      180.884        635.2
   39      181.366       636.86
   40      181.849       637.94
   41      182.332        638.7
   42      182.814       638.28
   43      183.297       636.96
   44      183.779       636.04
   45      184.262       635.84
   46      184.744       636.56
   47      185.226       637.76
   48      185.708       638.58
   49      186.191       638.82
   50      186.673          639
   51      187.155        639.1
   52      187.637       639.26
   53      188.119        639.6
   54        188.6        639.6
   55      189.082          639
   56      189.564       638.62
   57      190.046       638.18
   58      190.527       637.22
   59      191.009       636.66
   60      191.491       636.82
   61      191.972       637.02
   62      192.454       636.94
   63      192.935       637.44
   64      193.416       638.08
   65      193.897       638.22
   66      194.379       638.02
   67       194.86       638.42
   68      195.341       639.34
   69      195.822        640.1
   70      196.303        640.4
   71      196.784       640.46
   72      197.265        640.5
   73      197.746        640.4
   74      198.226       640.62
   75      198.707       641.44
   76      199.188       642.02
   77      199.668       641.98
   78      200.149       641.98
   79      200.629       641.98
   80       201.11       642.06
   81       201.59        642.4
   82       202.07       643.22
   83       202.55       643.82
   84      203.031        644.1
   85      203.511        644.3
   86      203.991        644.7
   87      204.471       645.26
   88      204.951       645.52
   89      205.431       645.64
   90       205.91       646.04
   91       206.39       645.92
   92       206.87       645.76
   93      207.349       646.54
   94      207.829       647.88
   95      208.309       649.28
   96      208.788       650.46
   97      209.267       650.48
   98      209.747       649.22
   99      210.226       647.84
  100      210.705       646.34
  101      211.185       645.68
  102      211.664       646.02
  103      212.143          647
  104      212.622       647.66
  105      213.101       647.62
  106      213.579       647.24
  107      214.058       647.36
  108      214.537        647.7
  109      215.016       648.06
  110      215.494       649.16
  111      215.973       650.24
  112      216.452       650.58
  113       216.93       650.66
  114      217.408        650.5
  115      217.887       650.38
  116      218.365       650.38
  117      218.843        649.8
  118      219.321       649.38
  119      219.799       649.76
  120      220.278       649.94
  121      220.755       650.18
  122      221.233        650.9
  123      221.711       651.08
  124      222.189       650.52
  125      222.667       649.82
  126      223.144        649.7
  127      223.622       650.22
  128        224.1       650.88
  129      224.577       651.72
  130      225.055       652.92
  131      225.532       653.68
  132      226.009       654.24
  133      226.486       654.74
  134      226.964       654.94
  135      227.441        655.3
  136      227.918       655.48
  137      228.395       655.16
  138      228.872       654.86
  139      229.349       654.78
  140      229.826        654.7
  141      230.302       655.02
  142      230.779       655.88
  143      231.256       656.82
  144      231.732       657.48
  145      232.209       656.86
  146      232.685       655.34
  147      233.162       653.36
  148      233.638        651.6
  149      234.114       650.16
  150       234.59       649.26
  151      235.066       648.78
  152      235.543       648.78
  153      236.019       648.76
  154      236.495        648.9
  155       236.97       649.62
  156      237.446       650.74
  157      237.922       652.34
  158      238.398        654.8
  159      238.873          657
  160      239.349       658.44
  161      239.824       659.34
  162        240.3       659.08
  163      240.775       658.14
  164      241.251       657.66
  165      241.726       657.94
  166      242.201       658.52
  167      242.676          659
  168      243.151       658.92
  169      243.626       658.52
  170      244.101       657.68
  171      244.576       656.66
  172      245.051       656.24
  173      245.526       656.18
  174          246       656.64
  175      246.475        656.8
  176       246.95       656.54
  177      247.424       656.44
  178      247.899       656.58
  179      248.373       656.88
  180      248.847        657.8
  181      249.321       658.86
  182      249.796       659.32
  183       250.27        658.7
  184      250.744        656.9
  185      251.218       655.24
  186      251.692       654.08
  187      252.166       653.66
  188      252.639       653.84
  189      253.113       654.48
  190      253.587        655.6
  191       254.06       656.84
  192      254.534        657.3
  193      255.007       658.14
  194      255.481       659.08
  195      255.954       659.32
  196      256.427       659.38
  197      256.901       659.72
  198      257.374       660.42
  199      257.847       661.22
  200       258.32       661.42
  201      258.793       661.28
  202      259.266       661.02
  203      259.739       660.24
  204      260.211       659.34
  205      260.684       658.72
  206      261.157       658.16
  207      261.629       658.22
  208      262.102       658.76
  209      262.574          659
  210      263.046       659.32
  211      263.519       659.72
  212      263.991       659.52
  213      264.463       658.88
  214      264.935       658.42
  215      265.407        657.9
  216      265.879        657.3
  217      266.351       657.04
  218      266.823       656.42
  219      267.295       654.92
  220      267.766       653.64
  221      268.238       652.78
  222       268.71       651.94
  223      269.181       651.74
  224      269.653       652.38
  225      270.124       652.86
  226      270.595        653.6
  227      271.066       654.76
  228      271.538       655.18
  229      272.009       655.78
  230       272.48       657.26
  231      272.951        658.6
  232      273.422       659.58
  233      273.892       661.04
  234      274.363       661.64
  235      274.834        660.7
  236      275.305       659.06
  237      275.775       657.22
  238      276.246        655.5
  239      276.716       654.66
  240      277.186       654.28
  241      277.657       654.48
  242      278.127       655.18
  243      278.597       655.48
  244      279.067        655.2
  245      279.537       655.58
  246      280.007       655.86
  247      280.477       655.08
  248      280.947       654.52
  249      281.417        654.9
  250      281.886       654.98
  251      282.356       654.82
  252      282.825       655.34
  253      283.295       655.94
  254      283.764        656.1
  255      284.234       656.24
  256      284.703       656.66
  257      285.172        657.5
  258      285.641       657.74
  259       286.11       657.32
  260      286.579       657.26
  261      287.048       657.24
  262      287.517       656.32
  263      287.986       655.74
  264      288.454       655.86
  265      288.923       655.32
  266      289.392       654.08
  267       289.86       653.16
  268      290.329        652.4
  269      290.797        651.4
  270      291.265        650.7
  271      291.734        650.9
  272      292.202       651.24
  273       292.67        651.5
  274      293.138       652.46
  275      293.606        653.9
  276      294.074       655.28
  277      294.541       656.76
  278      295.009       657.94
  279      295.477       658.36
  280      295.944       657.86
  281      296.412       657.08
  282      296.879       656.28
  283      297.347       655.52
  284      297.814       655.12
  285      298.281       655.24
  286      298.749       655.62
  287      299.216       656.08
  288      299.683       656.24
  289       300.15        655.8
  290      300.616       655.88
  291      301.083       656.04
  292       301.55       655.78
  293      302.017       656.06
  294      302.483       656.42
  295       302.95       655.82
  296      303.416       654.98
  297      303.883       654.84
  298      304.349          655
  299      304.815       654.94
  300      305.281        655.2
  301      305.748       655.32
  302      306.214       654.94
  303       306.68       654.78
  304      307.146        655.4
  305      307.611       656.46
  306      308.077       657.84
  307      308.543       659.54
  308      309.008       660.92
  309      309.474       661.78
  310      309.939       662.18
  311      310.405       662.34
  312       310.87       662.82
  313      311.335       663.54
  314        311.8       664.12
  315      312.266       664.18
  316      312.731        664.2
  317      313.196       664.36
  318       313.66       663.92
  319      314.125       663.36
  320       314.59       663.82
  321      315.055       664.78
  322      315.519       664.78
  323      315.984       664.28
  324      316.448       663.78
  325      316.913       662.66
  326      317.377        661.2
  327      317.841       659.76
  328      318.305       658.54
  329      318.769       657.34
  330      319.233       656.26
  331      319.697       655.42
  332      320.161       654.94
  333      320.625       654.16
  334      321.089       653.86
  335      321.552       653.76
  336      322.016       652.78
  337      322.479       650.94
  338      322.943       649.02
  339      323.406       646.56
  340      323.869        644.1
  341      324.333       642.36
  342      324.796       641.26
  343      325.259       640.94
  344      325.722          641
  345      326.185       641.14
  346      326.647       640.78
  347       327.11       639.74
  348      327.573       639.06
  349      328.035        638.5
  350      328.498       637.74
  351       328.96       637.58
  352      329.423       638.62
  353      329.885       639.34
  354      330.347       639.88
  355       330.81        640.1
  356      331.272       639.74
  357      331.734       638.94
  358      332.196       638.22
  359      332.657       637.36
  360      333.119       636.74
  361      333.581       636.72
  362      334.043       636.92
  363      334.504       637.26
  364      334.966       637.82
  365      335.427       638.64
  366      335.888       639.54
  367       336.35       639.82
  368      336.811       639.42
  369      337.272       638.96
  370      337.733       638.26
  371      338.194       636.92
  372      338.655       636.12
  373      339.115       635.98
  374      339.576       635.64
  375      340.037       635.06
  376      340.497       634.62
  377      340.958       633.98
  378      341.418       633.08
  379      341.879       632.68
  380      342.339       633.04
  381      342.799       633.18
  382      343.259       633.82
  383      343.719       634.94
  384      344.179       635.66
  385      344.639        635.9
  386      345.099        636.2
  387      345.559       636.04
  388      346.018       635.68
  389      346.478       635.78
  390      346.937       635.46
  391      347.397       635.06
  392      347.856       634.58
  393      348.315       634.12
  394      348.774        633.7
  395      349.234       633.66
  396      349.693       633.94
  397      350.152        634.3
  398       350.61       634.24
  399      351.069        633.6
  400      351.528       632.96
  401      351.987       631.92
  402      352.445       630.92
  403      352.904       630.68
  404      353.362       631.08
  405       353.82       631.74
  406      354.279       633.06
  407      354.737       634.38
  408      355.195       635.28
  409      355.653       636.38
  410      356.111       637.08
  411      356.569       637.14
  412      357.027       637.02
  413      357.484       636.58
  414      357.942       635.66
  415      358.399       635.02
  416      358.857       635.08
  417      359.314       635.82
  418      359.772        636.7
  419      360.229       637.36
  420      360.686       637.82
  421      361.143       638.08
  422        361.6        637.8
  423      362.057       637.54
  424      362.514        637.2
  425      362.971       636.68
  426      363.427       636.34
  427      363.884        636.2
  428       364.34          636
  429      364.797       636.02
  430      365.253        636.2
  431      365.709        636.7
  432      366.166       637.44
  433      366.622       638.16
  434      367.078       638.48
  435      367.534       638.46
  436       367.99       637.74
  437      368.445       636.76
  438      368.901       635.92
  439      369.357        635.8
  440      369.812       636.02
  441      370.268       636.16
  442      370.723       636.32
  443      371.179       636.64
  444      371.634        636.7
  445      372.089       636.36
  446      372.544       636.06
  447      372.999       635.76
  448      373.454       635.34
  449      373.909        634.9
  450      374.364       634.54
  451      374.818       634.26
  452      375.273        634.3
  453      375.727        634.7
  454      376.182        635.1
  455      376.636       635.88
  456       377.09       637.08
  457      377.545       637.86
  458      377.999       637.96
  459      378.453       637.86
  460      378.907       638.18
  461      379.361        638.1
  462      379.814        637.9
  463      380.268       637.92
  464      380.722       638.14
  465      381.175        638.8
  466      381.629       639.52
  467      382.082       639.66
  468      382.535       639.84
  469      382.989        640.3
  470      383.442       639.82
  471      383.895       639.52
  472      384.348       640.24
  473      384.801        640.9
  474      385.253       641.44
  475      385.706       642.18
  476      386.159       642.38
  477      386.611       642.14
  478      387.064       642.06
  479      387.516       641.64
  480      387.968       640.78
  481      388.421       640.04
  482      388.873       639.16
  483      389.325       638.58
  484      389.777       638.24
  485      390.229       638.28
  486      390.681       638.66
  487      391.132       639.32
  488      391.584       639.76
  489      392.035        640.2
  490      392.487       640.68
  491      392.938       641.14
  492       393.39       641.42
  493      393.841       641.14
  494      394.292       640.46
  495      394.743          640
  496      395.194       639.66
  497      395.645        639.3
  498      396.096        639.4
  499      396.546       640.04
  500      396.997        640.3
  501      397.448       640.52
  502      397.898        641.1
  503      398.349       641.74
  504      398.799       641.92
  505      399.249       642.28
  506      399.699       642.44
  507      400.149       642.18
  508      400.599       641.84
  509      401.049        642.1
  510      401.499       642.94
  511      401.949       645.94
  512      402.398       653.06
  513      402.848       665.08
  514      403.297       680.48
  515      403.747       695.52
  516      404.196       706.12
  517      404.645       709.22
  518      405.094       704.12
  519      405.543        692.8
  520      405.992        679.3
  521      406.441       667.16
  522       406.89       657.78
  523      407.339       651.38
  524      407.787       647.32
  525      408.236       644.16
  526      408.684       642.24
  527      409.132       641.42
  528      409.581       640.34
  529      410.029       639.48
  530      410.477       639.96
  531      410.925       640.16
  532      411.373        639.9
  533      411.821       640.32
  534      412.269       640.46
  535      412.716       640.38
  536      413.164        640.7
  537      413.611       641.42
  538      414.059       642.58
  539      414.506       644.94
  540      414.953       647.82
  541        415.4       649.98
  542      415.847       651.62
  543      416.294        652.3
  544      416.741       651.66
  545      417.188       650.32
  546      417.635        650.3
  547      418.081       651.36
  548      418.528       653.04
  549      418.974       655.16
  550      419.421       657.04
  551      419.867       657.18
  552      420.313       656.04
  553      420.759       654.16
  554      421.205       651.18
  555      421.651       648.04
  556      422.097        645.8
  557      422.543       644.06
  558      422.989       642.88
  559      423.434       642.86
  560       423.88       643.16
  561      424.325        643.2
  562       424.77       643.68
  563      425.216       644.84
  564      425.661        646.1
  565      426.106       647.78
  566      426.551        649.1
  567      426.996       649.62
  568       427.44        649.4
  569      427.885       648.74
  570       428.33        647.8
  571      428.774       647.04
  572      429.219       646.88
  573      429.663       646.74
  574      430.107       646.34
  575      430.551        645.4
  576      430.996       644.58
  577       431.44       643.88
  578      431.883       643.56
  579      432.327       643.96
  580      432.771       644.74
  581      433.215       645.54
  582      433.658       645.64
  583      434.102       644.68
  584      434.545       643.32
  585      434.988       642.08
  586      435.431       640.86
  587      435.875       640.18
  588      436.318        640.8
  589      436.761       641.94
  590      437.203       642.94
  591      437.646       643.84
  592      438.089       644.34
  593      438.531       644.22
  594      438.974       643.52
  595      439.416        642.5
  596      439.859       641.42
  597      440.301       640.76
  598      440.743        640.2
  599      441.185       640.34
  600      441.627       641.14
  601      442.069       641.52
  602       442.51        641.4
  603      442.952       641.62
  604      443.394       641.44
  605      443.835       640.56
  606      444.277       639.82
  607      444.718       639.28
  608      445.159       638.16
  609        445.6       637.02
  610      446.041       637.04
