scansci Spectrometer Data File
--- Measurement Setting ---
Type: Sample Spectrum
Date: Mon Oct 16 16:55:39 2023
User: (Reserved by scansci)
Serial: (Reserved by scansci)
Channel: No. 11
Integration Time: 1
Average: 10
Boxcar: 2
Electrical Dark: No-corrected
Time Normalize: (Reserved by scansci)
Dual-beam: (Reserved by scansci)
Reference Ch: (Reserved by scansci)
--- Measurement Data ---
Pixel   Wavelength   Intensity
    0        344.4        645.9
    1      344.867      645.775
    2      345.334       646.08
    3      345.801       646.58
    4      346.268        646.9
    5      346.735       647.22
    6      347.202       647.64
    7      347.669       647.82
    8      348.135       647.46
    9      348.602       647.02
   10      349.068       646.62
   11      349.535       646.54
   12      350.001        646.5
   13      350.467        646.9
   14      350.933       647.32
   15      351.399       647.28
   16      351.866       647.38
   17      352.331       647.46
   18      352.797       647.66
   19      353.263       648.34
   20      353.729       649.32
   21      354.194       649.72
   22       354.66        649.7
   23      355.126       649.42
   24      355.591       648.68
   25      356.056       647.92
   26      356.522       647.54
   27      356.987       647.28
   28      357.452        647.3
   29      357.917       648.06
   30      358.382          649
   31      358.847       649.82
   32      359.312       650.82
   33      359.776       651.42
   34      360.241       651.14
   35      360.706       650.48
   36       361.17       649.84
   37      361.634       649.16
   38      362.099       648.62
   39      362.563       648.52
   40      363.027       648.16
   41      363.491       647.94
   42      363.955       648.36
   43      364.419       648.44
   44      364.883        647.5
   45      365.347       646.76
   46      365.811        646.2
   47      366.274        645.4
   48      366.738       644.94
   49      367.201        645.4
   50      367.665        645.9
   51      368.128       646.38
   52      368.592       646.62
   53      369.055       646.56
   54      369.518       646.94
   55      369.981       647.76
   56      370.444       647.98
   57      370.907       648.12
   58       371.37       648.56
   59      371.832        648.5
   60      372.295       648.32
   61      372.757       648.58
   62       373.22        648.7
   63      373.682       648.36
   64      374.145       648.14
   65      374.607       647.96
   66      375.069        647.3
   67      375.531       646.42
   68      375.993          646
   69      376.455       645.98
   70      376.917       646.02
   71      377.379        646.3
   72      377.841       646.48
   73      378.302       646.76
   74      378.764       647.04
   75      379.225       646.88
   76      379.687       646.62
   77      380.148       646.88
   78      380.609        647.1
   79      381.071       646.88
   80      381.532       647.12
   81      381.993       647.72
   82      382.454        648.5
   83      382.915       648.92
   84      383.375        648.7
   85      383.836        647.9
   86      384.297       646.88
   87      384.757          646
   88      385.218        645.7
   89      385.678        646.3
   90      386.138        647.4
   91      386.599       648.14
   92      387.059        648.4
   93      387.519        648.6
   94      387.979       648.48
   95      388.439       648.26
   96      388.899       648.44
   97      389.358       648.96
   98      389.818       649.64
   99      390.278       650.62
  100      390.737       651.12
  101      391.197       651.22
  102      391.656       650.94
  103      392.115        650.4
  104      392.575        649.8
  105      393.034        649.5
  106      393.493       649.02
  107      393.952       648.58
  108      394.411       648.32
  109       394.87       648.08
  110      395.328       648.26
  111      395.787        648.9
  112      396.246       649.36
  113      396.704       649.04
  114      397.163       648.14
  115      397.621       646.92
  116      398.079        645.9
  117      398.537       644.84
  118      398.995       644.42
  119      399.454       644.66
  120      399.911       644.96
  121      400.369       645.46
  122      400.827       646.22
  123      401.285       646.96
  124      401.743       647.34
  125        402.2       647.08
  126      402.658       646.28
  127      403.115       645.68
  128      403.572        644.9
  129       404.03       644.34
  130      404.487       644.66
  131      404.944       645.14
  132      405.401       645.36
  133      405.858       646.04
  134      406.315       646.72
  135      406.771       646.92
  136      407.228       647.28
  137      407.685       647.98
  138      408.141       648.16
  139      408.598       647.98
  140      409.054       647.96
  141       409.51        647.9
  142      409.967       647.42
  143      410.423       647.38
  144      410.879        647.6
  145      411.335       647.96
  146      411.791       648.42
  147      412.246       648.68
  148      412.702       648.82
  149      413.158        649.4
  150      413.613       649.52
  151      414.069       648.88
  152      414.524       648.22
  153       414.98        647.6
  154      415.435        646.6
  155       415.89       646.06
  156      416.345       646.22
  157        416.8       646.98
  158      417.255        647.9
  159       417.71       648.96
  160      418.165       649.52
  161      418.619        649.7
  162      419.074        649.8
  163      419.529       649.48
  164      419.983       648.76
  165      420.437        648.3
  166      420.892       647.76
  167      421.346       647.06
  168        421.8       646.84
  169      422.254       647.22
  170      422.708       648.02
  171      423.162       649.32
  172      423.616        650.5
  173       424.07       650.72
  174      424.523       650.36
  175      424.977       649.72
  176       425.43        648.9
  177      425.884        647.9
  178      426.337       647.26
  179       426.79       646.98
  180      427.243       646.92
  181      427.697       646.98
  182       428.15       647.24
  183      428.602       647.32
  184      429.055       647.34
  185      429.508       647.28
  186      429.961        647.2
  187      430.413       647.24
  188      430.866       647.24
  189      431.318       647.06
  190      431.771       646.68
  191      432.223       646.46
  192      432.675       646.66
  193      433.127       647.12
  194      433.579       647.36
  195      434.031       648.02
  196      434.483        648.6
  197      434.935       648.34
  198      435.387       648.08
  199      435.838       648.52
  200       436.29        648.4
  201      436.741       647.72
  202      437.193       647.34
  203      437.644       646.88
  204      438.095       646.02
  205      438.546       645.92
  206      438.997       646.44
  207      439.448       647.32
  208      439.899       648.56
  209       440.35        649.7
  210      440.801       650.24
  211      441.251       650.54
  212      441.702        650.7
  213      442.152       650.72
  214      442.603       650.06
  215      443.053       648.66
  216      443.503        647.7
  217      443.954       646.72
  218      444.404       645.52
  219      444.854       645.44
  220      445.304       646.38
  221      445.753       647.06
  222      446.203       647.42
  223      446.653       648.08
  224      447.102       648.12
  225      447.552       647.84
  226      448.001        647.5
  227      448.451       647.24
  228        448.9       647.18
  229      449.349       647.52
  230      449.798       647.92
  231      450.247        648.3
  232      450.696        648.6
  233      451.145       648.24
  234      451.594       647.72
  235      452.042       647.28
  236      452.491       646.82
  237      452.939        646.8
  238      453.388       647.08
  239      453.836       646.94
  240      454.285       646.04
  241      454.733       644.38
  242      455.181       642.78
  243      455.629        641.9
  244      456.077       641.58
  245      456.525        641.8
  246      456.972       643.18
  247       457.42       644.56
  248      457.868       645.06
  249      458.315       646.06
  250      458.763       647.26
  251       459.21       647.38
  252      459.657        646.8
  253      460.104       646.34
  254      460.552       645.02
  255      460.999       643.92
  256      461.446       643.92
  257      461.892       644.38
  258      462.339       644.46
  259      462.786        644.6
  260      463.233       644.74
  261      463.679       644.54
  262      464.125       644.04
  263      464.572       644.04
  264      465.018       644.72
  265      465.464       645.16
  266       465.91       645.16
  267      466.356        645.3
  268      466.802       645.22
  269      467.248       645.02
  270      467.694       645.36
  271       468.14       645.68
  272      468.585       645.74
  273      469.031       646.06
  274      469.476       645.96
  275      469.922       645.54
  276      470.367        645.6
  277      470.812       645.84
  278      471.257       646.12
  279      471.702        646.5
  280      472.147       646.96
  281      472.592       647.54
  282      473.037       647.62
  283      473.482          647
  284      473.926       646.36
  285      474.371        645.6
  286      474.815       644.82
  287      475.259       645.26
  288      475.704        646.5
  289      476.148        647.7
  290      476.592       648.66
  291      477.036        649.1
  292       477.48        648.8
  293      477.924       648.32
  294      478.368        647.9
  295      478.811       647.38
  296      479.255       647.28
  297      479.698       647.64
  298      480.142       648.16
  299      480.585       648.58
  300      481.028       649.36
  301      481.472       650.18
  302      481.915       650.56
  303      482.358       650.78
  304      482.801       651.06
  305      483.244        650.8
  306      483.686       650.04
  307      484.129       649.44
  308      484.572       649.18
  309      485.014        649.5
  310      485.456       650.14
  311      485.899       650.66
  312      486.341       651.26
  313      486.783       651.38
  314      487.225       650.74
  315      487.667       650.02
  316      488.109       649.34
  317      488.551        648.6
  318      488.993       648.34
  319      489.434       648.64
  320      489.876       648.76
  321      490.318       648.78
  322      490.759       648.66
  323        491.2       648.08
  324      491.641       647.24
  325      492.083       646.56
  326      492.524       646.08
  327      492.965       646.14
  328      493.406        646.5
  329      493.846       646.84
  330      494.287       647.16
  331      494.728       647.32
  332      495.168       646.82
  333      495.609       646.48
  334      496.049       646.44
  335      496.489       646.54
  336       496.93       647.02
  337       497.37       647.74
  338       497.81       647.92
  339       498.25        647.7
  340       498.69       647.06
  341      499.129       646.12
  342      499.569       645.52
  343      500.009       645.62
  344      500.448       646.06
  345      500.888       646.72
  346      501.327        647.5
  347      501.766       648.02
  348      502.206       648.12
  349      502.645       648.02
  350      503.084       647.94
  351      503.523       647.68
  352      503.961        647.7
  353        504.4       647.74
  354      504.839       647.82
  355      505.277       648.14
  356      505.716        648.8
  357      506.154       649.32
  358      506.593       649.52
  359      507.031       649.36
  360      507.469       649.04
  361      507.907       648.68
  362      508.345       648.16
  363      508.783          648
  364      509.221       648.08
  365      509.659       648.36
  366      510.096       648.76
  367      510.534        649.4
  368      510.971       649.54
  369      511.409       649.32
  370      511.846       649.38
  371      512.283       649.46
  372       512.72        649.1
  373      513.157          649
  374      513.594       649.14
  375      514.031        648.9
  376      514.468       648.88
  377      514.905          649
  378      515.341       648.86
  379      515.778       648.74
  380      516.214       648.72
  381       516.65       648.34
  382      517.087       648.12
  383      517.523       648.06
  384      517.959       647.96
  385      518.395        648.5
  386      518.831       649.16
  387      519.267       649.46
  388      519.702       649.98
  389      520.138       650.72
  390      520.574       650.74
  391      521.009       650.68
  392      521.444       650.78
  393       521.88       650.84
  394      522.315       650.28
  395       522.75       649.36
  396      523.185       648.82
  397       523.62       648.14
  398      524.055       647.32
  399       524.49       647.18
  400      524.924        647.4
  401      525.359       647.24
  402      525.794       647.56
  403      526.228       648.22
  404      526.662       648.92
  405      527.097       649.58
  406      527.531       649.96
  407      527.965       649.96
  408      528.399       649.84
  409      528.833       649.54
  410      529.267       649.04
  411        529.7        648.8
  412      530.134       648.94
  413      530.568       648.88
  414      531.001       648.74
  415      531.434       649.22
  416      531.868        649.7
  417      532.301       649.98
  418      532.734       650.32
  419      533.167       650.66
  420        533.6       650.08
  421      534.033       649.24
  422      534.466       648.46
  423      534.898       647.96
  424      535.331       647.58
  425      535.763        647.9
  426      536.196       648.42
  427      536.628       648.98
  428       537.06       649.28
  429      537.493       649.16
  430      537.925       648.98
  431      538.357       648.92
  432      538.788       648.56
  433       539.22       648.18
  434      539.652       648.28
  435      540.084       648.34
  436      540.515       648.38
  437      540.947       648.42
  438      541.378       648.36
  439      541.809       648.12
  440       542.24       647.88
  441      542.672       647.68
  442      543.103       647.86
  443      543.533        648.4
  444      543.964       648.88
  445      544.395       649.24
  446      544.826        649.8
  447      545.256       649.72
  448      545.687        649.2
  449      546.117        648.8
  450      546.547       648.46
  451      546.978       647.84
  452      547.408        647.6
  453      547.838       647.58
  454      548.268       647.38
  455      548.698       647.04
  456      549.127       646.96
  457      549.557       647.32
  458      549.987        647.8
  459      550.416       648.32
  460      550.846       649.04
  461      551.275       649.52
  462      551.704       649.24
  463      552.133        648.8
  464      552.562       648.36
  465      552.991       647.84
  466       553.42       647.62
  467      553.849        648.2
  468      554.278       648.82
  469      554.706       649.44
  470      555.135       649.92
  471      555.563       650.26
  472      555.991       649.88
  473       556.42       649.36
  474      556.848       648.96
  475      557.276       648.86
  476      557.704       648.98
  477      558.132       649.98
  478       558.56       651.32
  479      558.987       652.42
  480      559.415       653.14
  481      559.843       653.42
  482       560.27          653
  483      560.697       652.62
  484      561.125       652.74
  485      561.552          653
  486      561.979        653.1
  487      562.406       653.02
  488      562.833        652.5
  489       563.26       652.02
  490      563.686       651.98
  491      564.113       652.64
  492       564.54        653.6
  493      564.966       654.48
  494      565.392       654.72
  495      565.819       654.36
  496      566.245       653.56
  497      566.671        652.8
  498      567.097       652.16
  499      567.523       651.78
  500      567.949       651.58
  501      568.374       651.06
  502        568.8       650.46
  503      569.226       650.42
  504      569.651       650.72
  505      570.077       650.76
  506      570.502       650.86
  507      570.927       650.76
  508      571.352       650.06
  509      571.777       648.72
  510      572.202       647.56
  511      572.627       646.92
  512      573.052       646.98
  513      573.476       647.34
  514      573.901       648.24
  515      574.325        649.5
  516       574.75       650.66
  517      575.174       651.16
  518      575.598       651.38
  519      576.022        651.4
  520      576.446       651.24
  521       576.87        651.1
  522      577.294       651.08
  523      577.718       651.22
  524      578.142       651.32
  525      578.565       651.28
  526      578.989       651.46
  527      579.412       652.06
  528      579.835        652.6
  529      580.259       653.06
  530      580.682       653.78
  531      581.105       653.96
  532      581.528       653.36
  533      581.951       652.66
  534      582.373        652.1
  535      582.796        651.3
  536      583.219       650.24
  537      583.641        649.4
  538      584.063       649.14
  539      584.486        649.3
  540      584.908        649.3
  541       585.33        649.8
  542      585.752       651.02
  543      586.174        651.8
  544      586.596          652
  545      587.018        652.5
  546      587.439          653
  547      587.861        652.8
  548      588.282        652.5
  549      588.704       652.62
  550      589.125       652.58
  551      589.546        652.7
  552      589.967        653.5
  553      590.388       654.38
  554      590.809       655.22
  555       591.23       655.98
  556      591.651       656.22
  557      592.071       655.84
  558      592.492       655.52
  559      592.912       654.98
  560      593.333       654.72
  561      593.753        654.8
  562      594.173        654.6
  563      594.593       654.46
  564      595.013        654.5
  565      595.433       655.08
  566      595.853       655.94
  567      596.273        656.8
  568      596.693       657.14
  569      597.112          657
  570      597.532       655.94
  571      597.951       654.64
  572       598.37       654.06
  573      598.789       654.08
  574      599.208       654.42
  575      599.627       654.94
  576      600.046       655.42
  577      600.465       656.04
  578      600.884       656.94
  579      601.303       657.98
  580      601.721        659.2
  581      602.139       659.92
  582      602.558       659.92
  583      602.976       659.18
  584      603.394       658.14
  585      603.812       656.82
  586       604.23       655.64
  587      604.648       654.86
  588      605.066       654.56
  589      605.484       654.46
  590      605.901       654.54
  591      606.319       655.06
  592      606.736        655.8
  593      607.154       656.38
  594      607.571       656.62
  595      607.988       656.82
  596      608.405       656.78
  597      608.822       656.22
  598      609.239       655.56
  599      609.656       655.38
  600      610.072       655.44
  601      610.489       655.36
  602      610.905       655.32
  603      611.322       655.64
  604      611.738       655.68
  605      612.154       655.32
  606       612.57       655.08
  607      612.986       655.36
  608      613.402       655.14
  609      613.818       654.36
  610      614.234       653.64
