scansci Spectrometer Data File
--- Measurement Setting ---
Type: Sample Spectrum
Date: Mon Oct 16 16:25:35 2023
User: (Reserved by scansci)
Serial: (Reserved by scansci)
Channel: No. 11
Integration Time: 1
Average: 10
Boxcar: 2
Electrical Dark: No-corrected
Time Normalize: (Reserved by scansci)
Dual-beam: (Reserved by scansci)
Reference Ch: (Reserved by scansci)
--- Measurement Data ---
Pixel   Wavelength   Intensity
    0        344.4        631.9
    1      344.867        632.4
    2      345.334       632.62
    3      345.801       633.06
    4      346.268       632.62
    5      346.735        632.2
    6      347.202        631.9
    7      347.669       631.72
    8      348.135       631.36
    9      348.602       630.46
   10      349.068       629.14
   11      349.535       628.06
   12      350.001        627.1
   13      350.467        626.8
   14      350.933        627.3
   15      351.399       628.02
   16      351.866       628.56
   17      352.331        628.5
   18      352.797       628.02
   19      353.263       627.52
   20      353.729       626.84
   21      354.194       626.44
   22       354.66       626.92
   23      355.126       628.02
   24      355.591        628.9
   25      356.056       629.72
   26      356.522       630.16
   27      356.987          630
   28      357.452       629.24
   29      357.917       628.44
   30      358.382       627.58
   31      358.847       626.56
   32      359.312       626.26
   33      359.776       626.66
   34      360.241       627.36
   35      360.706       627.98
   36       361.17        628.6
   37      361.634       628.52
   38      362.099          628
   39      362.563       627.26
   40      363.027       626.56
   41      363.491       626.36
   42      363.955       626.64
   43      364.419       627.28
   44      364.883       628.12
   45      365.347        629.1
   46      365.811       629.88
   47      366.274       629.76
   48      366.738       628.88
   49      367.201       628.32
   50      367.665       627.78
   51      368.128          627
   52      368.592       626.98
   53      369.055       627.56
   54      369.518        627.7
   55      369.981       627.58
   56      370.444       627.64
   57      370.907       627.76
   58       371.37       627.76
   59      371.832       628.02
   60      372.295        628.2
   61      372.757       627.74
   62       373.22       627.42
   63      373.682       627.06
   64      374.145        626.7
   65      374.607       626.82
   66      375.069       627.42
   67      375.531        627.9
   68      375.993       628.74
   69      376.455       629.52
   70      376.917       629.68
   71      377.379        629.3
   72      377.841        629.2
   73      378.302       629.14
   74      378.764       628.88
   75      379.225       628.76
   76      379.687        629.2
   77      380.148        629.3
   78      380.609       628.96
   79      381.071       628.82
   80      381.532       629.26
   81      381.993       629.72
   82      382.454       629.22
   83      382.915        628.4
   84      383.375       627.74
   85      383.836       627.18
   86      384.297       626.44
   87      384.757        626.4
   88      385.218       627.16
   89      385.678       627.56
   90      386.138       627.54
   91      386.599       627.76
   92      387.059       628.28
   93      387.519       628.72
   94      387.979       629.12
   95      388.439       629.32
   96      388.899       629.44
   97      389.358       629.64
   98      389.818       629.86
   99      390.278       630.18
  100      390.737        630.7
  101      391.197       631.44
  102      391.656       631.98
  103      392.115       632.04
  104      392.575       632.04
  105      393.034       632.22
  106      393.493       631.98
  107      393.952        631.8
  108      394.411       631.52
  109       394.87       630.82
  110      395.328       630.12
  111      395.787       629.88
  112      396.246       629.58
  113      396.704       629.26
  114      397.163       629.16
  115      397.621       628.88
  116      398.079       628.32
  117      398.537        627.7
  118      398.995       627.16
  119      399.454       626.76
  120      399.911       626.48
  121      400.369       626.42
  122      400.827       626.52
  123      401.285       626.94
  124      401.743       627.28
  125        402.2       627.28
  126      402.658        627.2
  127      403.115       626.88
  128      403.572       626.62
  129       404.03       627.04
  130      404.487       627.62
  131      404.944       627.94
  132      405.401        628.1
  133      405.858       627.88
  134      406.315       627.64
  135      406.771       627.72
  136      407.228       627.92
  137      407.685       627.94
  138      408.141       628.22
  139      408.598       628.34
  140      409.054       627.74
  141       409.51          627
  142      409.967       626.78
  143      410.423       626.64
  144      410.879       626.56
  145      411.335        626.9
  146      411.791       627.22
  147      412.246       627.28
  148      412.702       627.14
  149      413.158       627.14
  150      413.613        627.7
  151      414.069       628.26
  152      414.524       628.48
  153       414.98       628.48
  154      415.435       628.28
  155       415.89       627.98
  156      416.345       627.84
  157        416.8       628.18
  158      417.255       628.74
  159       417.71       628.88
  160      418.165       628.74
  161      418.619       628.52
  162      419.074       628.28
  163      419.529        628.6
  164      419.983       629.16
  165      420.437        629.2
  166      420.892       629.42
  167      421.346       629.66
  168        421.8       629.02
  169      422.254       627.76
  170      422.708       627.24
  171      423.162          627
  172      423.616       626.48
  173       424.07       626.56
  174      424.523        627.8
  175      424.977       628.84
  176       425.43       629.36
  177      425.884       629.66
  178      426.337        629.7
  179       426.79       629.28
  180      427.243       628.84
  181      427.697       628.16
  182       428.15        627.8
  183      428.602       627.66
  184      429.055       627.88
  185      429.508       628.18
  186      429.961       628.52
  187      430.413       628.98
  188      430.866       629.16
  189      431.318       628.56
  190      431.771       627.56
  191      432.223       627.12
  192      432.675        627.2
  193      433.127       627.54
  194      433.579       627.98
  195      434.031       628.42
  196      434.483       628.74
  197      434.935       628.68
  198      435.387       628.42
  199      435.838       628.44
  200       436.29       628.94
  201      436.741       629.44
  202      437.193        629.5
  203      437.644       629.44
  204      438.095       629.82
  205      438.546       630.24
  206      438.997        630.3
  207      439.448        630.4
  208      439.899       630.08
  209       440.35       629.12
  210      440.801       627.84
  211      441.251       626.82
  212      441.702       626.04
  213      442.152        626.2
  214      442.603       626.82
  215      443.053       627.66
  216      443.503       628.62
  217      443.954       629.46
  218      444.404       629.58
  219      444.854        629.2
  220      445.304       628.84
  221      445.753        628.7
  222      446.203          629
  223      446.653        629.5
  224      447.102       629.72
  225      447.552       629.74
  226      448.001       629.34
  227      448.451       628.48
  228        448.9       627.58
  229      449.349       626.98
  230      449.798       626.72
  231      450.247       626.82
  232      450.696       627.28
  233      451.145       628.22
  234      451.594       629.48
  235      452.042       630.12
  236      452.491       630.28
  237      452.939       630.28
  238      453.388        629.8
  239      453.836       629.02
  240      454.285        628.5
  241      454.733        628.2
  242      455.181       627.78
  243      455.629       627.34
  244      456.077       627.22
  245      456.525       627.36
  246      456.972       627.62
  247       457.42       628.26
  248      457.868       629.24
  249      458.315       629.86
  250      458.763       630.16
  251       459.21       630.38
  252      459.657        630.1
  253      460.104       629.32
  254      460.552          629
  255      460.999       628.98
  256      461.446        628.9
  257      461.892       629.14
  258      462.339       629.82
  259      462.786       629.92
  260      463.233       629.44
  261      463.679       628.88
  262      464.125       627.92
  263      464.572       627.04
  264      465.018       626.36
  265      465.464       625.94
  266       465.91       625.84
  267      466.356       626.38
  268      466.802       627.04
  269      467.248       627.66
  270      467.694       628.26
  271       468.14       628.72
  272      468.585       629.08
  273      469.031       629.16
  274      469.476       628.72
  275      469.922          628
  276      470.367       627.24
  277      470.812       626.36
  278      471.257       625.56
  279      471.702       625.42
  280      472.147       625.62
  281      472.592       625.76
  282      473.037       625.76
  283      473.482       625.68
  284      473.926       625.82
  285      474.371          626
  286      474.815        626.3
  287      475.259       626.82
  288      475.704       627.24
  289      476.148       627.78
  290      476.592       628.18
  291      477.036        628.3
  292       477.48        628.7
  293      477.924        629.3
  294      478.368       629.26
  295      478.811       629.52
  296      479.255        630.4
  297      479.698          631
  298      480.142       631.12
  299      480.585       631.08
  300      481.028       631.12
  301      481.472       630.56
  302      481.915       629.32
  303      482.358       628.36
  304      482.801       627.92
  305      483.244       627.14
  306      483.686       626.38
  307      484.129       626.02
  308      484.572          626
  309      485.014        626.2
  310      485.456       626.64
  311      485.899       627.26
  312      486.341       628.02
  313      486.783        628.4
  314      487.225        628.1
  315      487.667       627.74
  316      488.109        627.5
  317      488.551       627.34
  318      488.993       627.62
  319      489.434       628.06
  320      489.876        628.2
  321      490.318       628.16
  322      490.759       628.08
  323        491.2       627.66
  324      491.641        627.6
  325      492.083       627.74
  326      492.524       627.62
  327      492.965       627.28
  328      493.406       627.22
  329      493.846       627.02
  330      494.287       626.62
  331      494.728       626.58
  332      495.168       626.84
  333      495.609       626.86
  334      496.049       627.06
  335      496.489       627.96
  336       496.93        628.7
  337       497.37       628.86
  338       497.81       628.82
  339       498.25       628.88
  340       498.69        628.8
  341      499.129       628.98
  342      499.569       629.22
  343      500.009       629.26
  344      500.448       628.94
  345      500.888       628.26
  346      501.327       627.42
  347      501.766        627.1
  348      502.206       627.36
  349      502.645       627.68
  350      503.084       627.94
  351      503.523       628.18
  352      503.961       628.12
  353        504.4       627.82
  354      504.839        627.8
  355      505.277       627.94
  356      505.716       628.24
  357      506.154       628.62
  358      506.593       629.04
  359      507.031       629.16
  360      507.469       629.36
  361      507.907       629.54
  362      508.345       629.96
  363      508.783       630.64
  364      509.221        631.1
  365      509.659       631.24
  366      510.096       631.14
  367      510.534       630.66
  368      510.971       630.08
  369      511.409       630.26
  370      511.846          631
  371      512.283       632.18
  372       512.72       633.62
  373      513.157        634.4
  374      513.594        634.5
  375      514.031       634.72
  376      514.468       634.68
  377      514.905       634.08
  378      515.341       633.92
  379      515.778       634.66
  380      516.214       635.38
  381       516.65       635.94
  382      517.087       636.78
  383      517.523       637.98
  384      517.959       638.68
  385      518.395       638.88
  386      518.831       639.64
  387      519.267       641.08
  388      519.702       642.34
  389      520.138       643.44
  390      520.574       644.24
  391      521.009       644.66
  392      521.444       645.24
  393       521.88       645.88
  394      522.315       646.22
  395       522.75       646.64
  396      523.185       647.04
  397       523.62       647.12
  398      524.055       647.44
  399       524.49       648.36
  400      524.924       649.46
  401      525.359       650.42
  402      525.794       651.26
  403      526.228        651.9
  404      526.662       652.08
  405      527.097       652.04
  406      527.531        652.2
  407      527.965       652.04
  408      528.399       651.78
  409      528.833       651.98
  410      529.267       652.68
  411        529.7       653.54
  412      530.134       654.66
  413      530.568       655.58
  414      531.001       655.94
  415      531.434       655.84
  416      531.868       655.44
  417      532.301       655.72
  418      532.734       656.56
  419      533.167       657.42
  420        533.6       658.32
  421      534.033       659.24
  422      534.466        659.6
  423      534.898          660
  424      535.331       660.74
  425      535.763       661.66
  426      536.196       662.82
  427      536.628       664.18
  428       537.06       665.32
  429      537.493       666.44
  430      537.925       667.56
  431      538.357        668.5
  432      538.788       668.84
  433       539.22       668.86
  434      539.652       668.96
  435      540.084       669.26
  436      540.515       669.14
  437      540.947       668.98
  438      541.378       669.26
  439      541.809       669.84
  440       542.24       670.22
  441      542.672       670.88
  442      543.103       672.14
  443      543.533       673.36
  444      543.964       674.32
  445      544.395       674.96
  446      544.826       675.42
  447      545.256       675.62
  448      545.687       675.82
  449      546.117       676.06
  450      546.547       676.52
  451      546.978       677.24
  452      547.408       677.82
  453      547.838        678.2
  454      548.268       678.68
  455      548.698          679
  456      549.127        679.3
  457      549.557       679.94
  458      549.987        680.6
  459      550.416       680.78
  460      550.846       681.62
  461      551.275        682.9
  462      551.704       683.46
  463      552.133       683.68
  464      552.562       684.08
  465      552.991       684.28
  466       553.42       684.18
  467      553.849       684.86
  468      554.278       686.02
  469      554.706       687.46
  470      555.135       689.04
  471      555.563       690.58
  472      555.991       691.74
  473       556.42       692.64
  474      556.848       693.48
  475      557.276       693.82
  476      557.704        694.5
  477      558.132       695.22
  478       558.56       695.86
  479      558.987       696.68
  480      559.415       697.82
  481      559.843        698.5
  482       560.27       699.28
  483      560.697       700.64
  484      561.125       702.04
  485      561.552        703.7
  486      561.979        705.6
  487      562.406       707.48
  488      562.833       709.02
  489       563.26       710.12
  490      563.686       711.56
  491      564.113       713.14
  492       564.54       714.64
  493      564.966       716.22
  494      565.392       717.78
  495      565.819        718.9
  496      566.245       719.72
  497      566.671       720.66
  498      567.097       721.68
  499      567.523       723.02
  500      567.949       724.28
  501      568.374       725.76
  502        568.8        727.4
  503      569.226       729.06
  504      569.651       730.44
  505      570.077       731.72
  506      570.502       733.52
  507      570.927       735.58
  508      571.352        737.3
  509      571.777       739.38
  510      572.202       742.26
  511      572.627       744.44
  512      573.052       745.94
  513      573.476       747.22
  514      573.901       748.22
  515      574.325       748.68
  516       574.75       748.96
  517      575.174        749.8
  518      575.598       752.02
  519      576.022       755.24
  520      576.446       759.06
  521       576.87       763.62
  522      577.294       767.58
  523      577.718        769.9
  524      578.142       771.04
  525      578.565          772
  526      578.989       772.88
  527      579.412       774.44
  528      579.835       776.28
  529      580.259       778.36
  530      580.682       780.06
  531      581.105       781.48
  532      581.528       782.92
  533      581.951       784.86
  534      582.373       787.06
  535      582.796        789.9
  536      583.219       793.28
  537      583.641       796.12
  538      584.063       798.26
  539      584.486       799.92
  540      584.908       801.08
  541       585.33       801.52
  542      585.752       801.82
  543      586.174       802.96
  544      586.596       804.62
  545      587.018        805.9
  546      587.439       808.18
  547      587.861        811.3
  548      588.282       814.16
  549      588.704       816.78
  550      589.125       819.62
  551      589.546       821.58
  552      589.967        823.1
  553      590.388       824.64
  554      590.809       826.28
  555       591.23       828.36
  556      591.651       830.52
  557      592.071        832.4
  558      592.492       834.74
  559      592.912       837.44
  560      593.333       839.54
  561      593.753       841.52
  562      594.173       844.18
  563      594.593       846.38
  564      595.013       847.34
  565      595.433       847.58
  566      595.853       847.88
  567      596.273       847.82
  568      596.693       847.48
  569      597.112       847.44
  570      597.532       848.02
  571      597.951        848.5
  572       598.37       849.28
  573      598.789        850.8
  574      599.208       852.36
  575      599.627       854.28
  576      600.046       856.54
  577      600.465       857.52
  578      600.884       857.06
  579      601.303       856.84
  580      601.721       856.38
  581      602.139       855.82
  582      602.558       856.22
  583      602.976       857.26
  584      603.394       858.22
  585      603.812        859.4
  586       604.23       860.74
  587      604.648        862.1
  588      605.066       863.14
  589      605.484       864.38
  590      605.901        864.6
  591      606.319       863.84
  592      606.736       863.12
  593      607.154       863.36
  594      607.571       863.72
  595      607.988       864.34
  596      608.405       865.38
  597      608.822        866.6
  598      609.239       867.38
  599      609.656       867.34
  600      610.072       867.14
  601      610.489       866.58
  602      610.905       865.54
  603      611.322       864.68
  604      611.738       864.82
  605      612.154        865.3
  606       612.57       866.38
  607      612.986       867.44
  608      613.402       867.96
  609      613.818       868.08
  610      614.234       868.64
