scansci Spectrometer Data File
--- Measurement Setting ---
Type: Sample Spectrum
Date: Mon Oct 16 16:57:54 2023
User: (Reserved by scansci)
Serial: (Reserved by scansci)
Channel: No. 11
Integration Time: 1
Average: 10
Boxcar: 2
Electrical Dark: No-corrected
Time Normalize: (Reserved by scansci)
Dual-beam: (Reserved by scansci)
Reference Ch: (Reserved by scansci)
--- Measurement Data ---
Pixel   Wavelength   Intensity
    0        162.5      615.033
    1      162.985      615.075
    2      163.469       615.34
    3      163.954       615.82
    4      164.439        616.8
    5      164.923       617.58
    6      165.408       618.48
    7      165.892       619.04
    8      166.377        618.7
    9      166.861       617.68
   10      167.345       616.28
   11       167.83       614.78
   12      168.314       613.92
   13      168.798       613.72
   14      169.282       614.02
   15      169.766        615.4
   16       170.25          617
   17      170.734       617.76
   18      171.218       618.32
   19      171.702       618.68
   20      172.185       617.88
   21      172.669       617.02
   22      173.153       616.74
   23      173.636       616.84
   24       174.12       617.26
   25      174.603       618.32
   26      175.087       618.96
   27       175.57        618.9
   28      176.053       618.78
   29      176.537        618.2
   30       177.02       617.18
   31      177.503       616.56
   32      177.986       616.32
   33      178.469       616.02
   34      178.952        616.5
   35      179.435       617.42
   36      179.918       617.72
   37      180.401       617.88
   38      180.884       617.68
   39      181.366       616.62
   40      181.849       615.58
   41      182.332       615.26
   42      182.814       615.56
   43      183.297       616.28
   44      183.779       617.72
   45      184.262       618.96
   46      184.744       619.18
   47      185.226       618.72
   48      185.708       618.34
   49      186.191       617.88
   50      186.673       617.64
   51      187.155       618.02
   52      187.637       618.26
   53      188.119       617.94
   54        188.6       617.42
   55      189.082       616.44
   56      189.564        615.6
   57      190.046        615.5
   58      190.527        615.7
   59      191.009       615.68
   60      191.491       616.06
   61      191.972       617.08
   62      192.454       618.02
   63      192.935       618.58
   64      193.416       618.92
   65      193.897        618.8
   66      194.379       618.26
   67       194.86       617.92
   68      195.341       617.76
   69      195.822        617.7
   70      196.303          618
   71      196.784       618.14
   72      197.265       617.78
   73      197.746        617.3
   74      198.226       616.88
   75      198.707       616.78
   76      199.188       616.68
   77      199.668        616.4
   78      200.149       616.52
   79      200.629       616.94
   80       201.11       616.96
   81       201.59       617.28
   82       202.07       617.86
   83       202.55       618.16
   84      203.031       618.38
   85      203.511       618.64
   86      203.991       618.62
   87      204.471        618.3
   88      204.951       618.12
   89      205.431          618
   90       205.91        617.7
   91       206.39       617.44
   92       206.87       617.52
   93      207.349       617.58
   94      207.829       617.46
   95      208.309        617.7
   96      208.788       617.72
   97      209.267       617.06
   98      209.747       616.64
   99      210.226        616.7
  100      210.705       616.24
  101      211.185       615.78
  102      211.664       616.32
  103      212.143       616.78
  104      212.622       616.34
  105      213.101       615.72
  106      213.579       615.28
  107      214.058       614.46
  108      214.537          614
  109      215.016        614.7
  110      215.494       615.88
  111      215.973       616.66
  112      216.452       617.26
  113       216.93        617.4
  114      217.408       616.72
  115      217.887       616.38
  116      218.365       616.32
  117      218.843        616.3
  118      219.321       616.52
  119      219.799       616.96
  120      220.278       616.98
  121      220.755       617.08
  122      221.233       617.12
  123      221.711       616.64
  124      222.189        615.8
  125      222.667       614.92
  126      223.144       613.86
  127      223.622       613.26
  128        224.1       613.34
  129      224.577       614.14
  130      225.055       615.22
  131      225.532       616.76
  132      226.009       618.18
  133      226.486       619.12
  134      226.964       619.72
  135      227.441        620.1
  136      227.918        619.8
  137      228.395       619.32
  138      228.872       619.08
  139      229.349       618.62
  140      229.826       618.04
  141      230.302       617.74
  142      230.779       617.58
  143      231.256       617.28
  144      231.732        616.9
  145      232.209       616.88
  146      232.685       617.38
  147      233.162       617.78
  148      233.638       617.92
  149      234.114       618.24
  150       234.59       618.16
  151      235.066       617.44
  152      235.543       616.76
  153      236.019       616.26
  154      236.495       615.92
  155       236.97       615.78
  156      237.446       615.68
  157      237.922       615.96
  158      238.398        616.2
  159      238.873        615.9
  160      239.349       615.84
  161      239.824       615.68
  162        240.3       614.74
  163      240.775       613.52
  164      241.251        612.6
  165      241.726       611.78
  166      242.201        611.5
  167      242.676       611.94
  168      243.151       613.04
  169      243.626       613.92
  170      244.101       614.12
  171      244.576       614.26
  172      245.051       614.28
  173      245.526       614.54
  174          246        615.8
  175      246.475       617.58
  176       246.95       619.06
  177      247.424       620.06
  178      247.899        620.1
  179      248.373       619.26
  180      248.847       617.74
  181      249.321        616.5
  182      249.796       615.46
  183       250.27       614.72
  184      250.744       614.34
  185      251.218       614.76
  186      251.692       615.06
  187      252.166       615.38
  188      252.639       615.98
  189      253.113       616.42
  190      253.587       616.58
  191       254.06        616.7
  192      254.534       616.94
  193      255.007       616.52
  194      255.481       616.22
  195      255.954       616.06
  196      256.427       615.92
  197      256.901       615.46
  198      257.374        615.4
  199      257.847        615.2
  200       258.32       615.24
  201      258.793       615.46
  202      259.266       615.74
  203      259.739       615.94
  204      260.211       616.26
  205      260.684       616.26
  206      261.157       616.14
  207      261.629       616.44
  208      262.102       617.14
  209      262.574       617.96
  210      263.046       618.66
  211      263.519        618.8
  212      263.991       618.46
  213      264.463       618.34
  214      264.935       618.24
  215      265.407       618.26
  216      265.879       618.78
  217      266.351       619.34
  218      266.823       619.02
  219      267.295       617.96
  220      267.766       616.82
  221      268.238       616.04
  222       268.71        615.2
  223      269.181       614.58
  224      269.653       614.64
  225      270.124       615.06
  226      270.595       615.14
  227      271.066       615.36
  228      271.538       616.04
  229      272.009       616.46
  230       272.48        616.7
  231      272.951       616.76
  232      273.422       616.74
  233      273.892       616.08
  234      274.363       615.68
  235      274.834       615.52
  236      275.305       615.34
  237      275.775       615.36
  238      276.246       615.98
  239      276.716        616.3
  240      277.186       615.84
  241      277.657       615.56
  242      278.127       615.06
  243      278.597        614.2
  244      279.067       613.92
  245      279.537       614.16
  246      280.007       614.04
  247      280.477       614.34
  248      280.947       615.42
  249      281.417       616.36
  250      281.886       616.88
  251      282.356       617.56
  252      282.825       617.86
  253      283.295       617.54
  254      283.764       617.16
  255      284.234       617.44
  256      284.703       617.64
  257      285.172       617.56
  258      285.641       617.52
  259       286.11        617.4
  260      286.579       616.62
  261      287.048       615.86
  262      287.517       615.74
  263      287.986       615.22
  264      288.454       614.78
  265      288.923       615.26
  266      289.392        616.1
  267       289.86       616.58
  268      290.329       616.98
  269      290.797       617.38
  270      291.265       617.52
  271      291.734       617.24
  272      292.202       617.26
  273       292.67          618
  274      293.138       618.56
  275      293.606       618.68
  276      294.074       619.36
  277      294.541       619.82
  278      295.009       620.12
  279      295.477        620.3
  280      295.944       619.82
  281      296.412       619.08
  282      296.879       618.18
  283      297.347       616.98
  284      297.814       616.12
  285      298.281       617.12
  286      298.749       618.52
  287      299.216       619.86
  288      299.683       621.18
  289       300.15       621.98
  290      300.616        621.1
  291      301.083        619.6
  292       301.55       618.22
  293      302.017        616.9
  294      302.483       616.14
  295       302.95       616.12
  296      303.416       616.38
  297      303.883       616.64
  298      304.349        616.9
  299      304.815       616.98
  300      305.281       616.78
  301      305.748       616.68
  302      306.214       617.24
  303       306.68       617.76
  304      307.146       617.62
  305      307.611       616.92
  306      308.077       616.16
  307      308.543       615.38
  308      309.008       615.18
  309      309.474       615.72
  310      309.939       616.14
  311      310.405        615.9
  312       310.87       615.36
  313      311.335        614.6
  314        311.8       613.94
  315      312.266        614.2
  316      312.731       615.26
  317      313.196       616.08
  318       313.66       616.64
  319      314.125       616.96
  320       314.59       616.94
  321      315.055       616.84
  322      315.519        617.2
  323      315.984        617.4
  324      316.448       617.26
  325      316.913       617.42
  326      317.377       617.04
  327      317.841       616.12
  328      318.305       615.52
  329      318.769       615.66
  330      319.233       615.64
  331      319.697       615.72
  332      320.161       616.24
  333      320.625       616.74
  334      321.089       616.48
  335      321.552        616.3
  336      322.016       616.74
  337      322.479       616.42
  338      322.943       615.76
  339      323.406       615.84
  340      323.869       616.14
  341      324.333       616.22
  342      324.796       616.84
  343      325.259       617.52
  344      325.722       617.52
  345      326.185       617.58
  346      326.647       617.98
  347       327.11       618.62
  348      327.573       618.74
  349      328.035       618.22
  350      328.498        617.3
  351       328.96       616.48
  352      329.423       615.84
  353      329.885       616.06
  354      330.347       617.32
  355       330.81       618.68
  356      331.272        619.6
  357      331.734       620.02
  358      332.196       620.12
  359      332.657        620.1
  360      333.119       619.54
  361      333.581       618.24
  362      334.043       616.96
  363      334.504       616.16
  364      334.966       615.54
  365      335.427       615.68
  366      335.888       616.32
  367       336.35       617.02
  368      336.811       617.38
  369      337.272       617.96
  370      337.733       618.42
  371      338.194       618.42
  372      338.655        618.5
  373      339.115        618.9
  374      339.576       618.62
  375      340.037       617.76
  376      340.497       617.16
  377      340.958        616.9
  378      341.418       617.04
  379      341.879       617.52
  380      342.339       618.46
  381      342.799       619.26
  382      343.259       619.08
  383      343.719       618.24
  384      344.179       617.52
  385      344.639       617.28
  386      345.099       617.44
  387      345.559       617.96
  388      346.018       618.78
  389      346.478       619.42
  390      346.937       619.12
  391      347.397       618.92
  392      347.856       618.62
  393      348.315       617.68
  394      348.774       617.06
  395      349.234       617.26
  396      349.693       617.26
  397      350.152       617.54
  398       350.61       618.28
  399      351.069       618.82
  400      351.528        618.8
  401      351.987       618.42
  402      352.445       617.58
  403      352.904       616.98
  404      353.362       616.42
  405       353.82       616.62
  406      354.279       617.36
  407      354.737       618.28
  408      355.195        618.8
  409      355.653       619.14
  410      356.111       619.06
  411      356.569       618.64
  412      357.027       618.18
  413      357.484        617.8
  414      357.942       616.98
  415      358.399       616.08
  416      358.857       615.58
  417      359.314       615.32
  418      359.772        614.9
  419      360.229       614.96
  420      360.686       615.42
  421      361.143       615.94
  422        361.6        616.6
  423      362.057        617.1
  424      362.514       617.66
  425      362.971       618.44
  426      363.427       619.08
  427      363.884       619.12
  428       364.34       619.28
  429      364.797        619.3
  430      365.253        618.8
  431      365.709       618.38
  432      366.166       618.42
  433      366.622        618.7
  434      367.078       619.54
  435      367.534       620.84
  436       367.99       621.86
  437      368.445       622.82
  438      368.901        623.7
  439      369.357       624.08
  440      369.812        623.6
  441      370.268       622.78
  442      370.723       621.76
  443      371.179       620.24
  444      371.634       618.46
  445      372.089        617.1
  446      372.544       616.36
  447      372.999       615.76
  448      373.454       615.56
  449      373.909       615.46
  450      374.364       615.72
  451      374.818       616.08
  452      375.273       616.64
  453      375.727        617.4
  454      376.182       617.92
  455      376.636       617.86
  456       377.09       617.56
  457      377.545       617.44
  458      377.999        617.2
  459      378.453       617.36
  460      378.907       617.42
  461      379.361       617.52
  462      379.814       617.22
  463      380.268       616.88
  464      380.722       616.48
  465      381.175       616.26
  466      381.629          616
  467      382.082        615.8
  468      382.535       615.82
  469      382.989       616.24
  470      383.442       616.74
  471      383.895       617.42
  472      384.348       618.34
  473      384.801       619.18
  474      385.253       619.22
  475      385.706       619.06
  476      386.159       618.48
  477      386.611       617.56
  478      387.064       616.62
  479      387.516       616.46
  480      387.968       616.34
  481      388.421       616.32
  482      388.873       616.96
  483      389.325        618.2
  484      389.777          619
  485      390.229       619.42
  486      390.681          620
  487      391.132       620.06
  488      391.584       619.04
  489      392.035       617.82
  490      392.487        616.9
  491      392.938       616.14
  492       393.39       615.48
  493      393.841       615.28
  494      394.292        615.2
  495      394.743        615.4
  496      395.194        616.4
  497      395.645       618.08
  498      396.096       619.02
  499      396.546       619.48
  500      396.997       619.58
  501      397.448       618.72
  502      397.898       617.78
  503      398.349       618.08
  504      398.799       618.94
  505      399.249       620.06
  506      399.699        621.2
  507      400.149       621.88
  508      400.599       621.98
  509      401.049       622.04
  510      401.499       622.04
  511      401.949       621.92
  512      402.398        621.8
  513      402.848       621.58
  514      403.297        621.3
  515      403.747       621.06
  516      404.196          621
  517      404.645       620.66
  518      405.094       620.74
  519      405.543       621.52
  520      405.992       622.32
  521      406.441       622.34
  522       406.89       622.52
  523      407.339       623.08
  524      407.787       622.94
  525      408.236       622.74
  526      408.684        623.4
  527      409.132       623.94
  528      409.581       624.02
  529      410.029       624.74
  530      410.477       625.22
  531      410.925       625.36
  532      411.373       625.94
  533      411.821       627.18
  534      412.269       628.38
  535      412.716       630.28
  536      413.164       632.58
  537      413.611       634.46
  538      414.059        635.9
  539      414.506       637.68
  540      414.953       639.54
  541        415.4       641.36
  542      415.847       643.42
  543      416.294       645.18
  544      416.741       646.32
  545      417.188       647.44
  546      417.635       649.46
  547      418.081        651.8
  548      418.528       654.56
  549      418.974       657.46
  550      419.421       660.16
  551      419.867       662.52
  552      420.313       665.06
  553      420.759        667.8
  554      421.205       670.68
  555      421.651       673.78
  556      422.097       676.92
  557      422.543       680.56
  558      422.989       684.94
  559      423.434       689.28
  560       423.88        693.2
  561      424.325       697.34
  562       424.77       701.78
  563      425.216       705.68
  564      425.661       710.22
  565      426.106       715.88
  566      426.551       721.98
  567      426.996       728.62
  568       427.44       735.96
  569      427.885       743.86
  570       428.33       751.82
  571      428.774       760.16
  572      429.219       768.02
  573      429.663       775.18
  574      430.107       782.74
  575      430.551       791.66
  576      430.996       801.38
  577       431.44        811.5
  578      431.883       822.34
  579      432.327       832.94
  580      432.771       842.58
  581      433.215       851.66
  582      433.658       861.22
  583      434.102       871.56
  584      434.545        882.2
  585      434.988       892.98
  586      435.431       903.82
  587      435.875       915.28
  588      436.318       928.76
  589      436.761       944.26
  590      437.203       961.02
  591      437.646       978.54
  592      438.089       996.04
  593      438.531      1012.24
  594      438.974      1028.12
  595      439.416      1044.74
  596      439.859      1062.78
  597      440.301      1081.88
  598      440.743      1102.06
  599      441.185       1123.8
  600      441.627       1147.4
  601      442.069      1171.28
  602       442.51      1194.44
  603      442.952      1215.24
  604      443.394      1233.36
  605      443.835      1249.82
  606      444.277      1266.08
  607      444.718      1283.08
  608      445.159      1304.08
  609        445.6      1330.68
  610      446.041      1359.96
