scansci Spectrometer Data File
--- Measurement Setting ---
Type: Sample Spectrum
Date: Mon Oct 16 16:26:57 2023
User: (Reserved by scansci)
Serial: (Reserved by scansci)
Channel: No. 11
Integration Time: 1
Average: 10
Boxcar: 2
Electrical Dark: No-corrected
Time Normalize: (Reserved by scansci)
Dual-beam: (Reserved by scansci)
Reference Ch: (Reserved by scansci)
--- Measurement Data ---
Pixel   Wavelength   Intensity
    0        162.5      640.167
    1      162.985      641.625
    2      163.469       642.38
    3      163.954       643.96
    4      164.439       644.42
    5      164.923        644.3
    6      165.408          644
    7      165.892       643.88
    8      166.377       643.92
    9      166.861       644.16
   10      167.345       643.72
   11       167.83       642.88
   12      168.314        642.3
   13      168.798        641.7
   14      169.282       641.18
   15      169.766       641.52
   16       170.25       642.44
   17      170.734          643
   18      171.218        643.7
   19      171.702       644.86
   20      172.185        645.8
   21      172.669       646.04
   22      173.153        646.3
   23      173.636       646.84
   24       174.12       647.26
   25      174.603       647.52
   26      175.087       647.98
   27       175.57       648.54
   28      176.053       649.44
   29      176.537        650.5
   30       177.02       651.42
   31      177.503          653
   32      177.986       655.14
   33      178.469       657.68
   34      178.952       660.98
   35      179.435       665.36
   36      179.918       669.68
   37      180.401       673.54
   38      180.884       676.38
   39      181.366       678.16
   40      181.849        679.1
   41      182.332       679.64
   42      182.814       679.66
   43      183.297       679.08
   44      183.779        677.7
   45      184.262       676.04
   46      184.744       674.26
   47      185.226       672.82
   48      185.708       671.94
   49      186.191       671.62
   50      186.673        671.1
   51      187.155       670.52
   52      187.637       670.32
   53      188.119       670.54
   54        188.6          671
   55      189.082        671.5
   56      189.564       671.96
   57      190.046       671.86
   58      190.527       671.46
   59      191.009       671.14
   60      191.491        671.3
   61      191.972       671.76
   62      192.454       672.04
   63      192.935       671.86
   64      193.416       671.22
   65      193.897       670.68
   66      194.379       670.36
   67       194.86       670.44
   68      195.341       670.44
   69      195.822       670.56
   70      196.303       671.12
   71      196.784       671.52
   72      197.265       671.98
   73      197.746       672.74
   74      198.226       673.18
   75      198.707       672.84
   76      199.188       672.28
   77      199.668       671.46
   78      200.149       670.78
   79      200.629       670.64
   80       201.11       670.44
   81       201.59       670.48
   82       202.07       671.08
   83       202.55       671.56
   84      203.031       672.04
   85      203.511       672.46
   86      203.991        672.3
   87      204.471       671.54
   88      204.951       670.48
   89      205.431       669.34
   90       205.91       668.36
   91       206.39       667.58
   92       206.87       667.68
   93      207.349       668.54
   94      207.829        669.2
   95      208.309       670.24
   96      208.788       671.24
   97      209.267       671.42
   98      209.747        671.5
   99      210.226       671.28
  100      210.705       670.28
  101      211.185       669.32
  102      211.664       668.48
  103      212.143       667.94
  104      212.622       667.76
  105      213.101       667.58
  106      213.579       667.32
  107      214.058       667.26
  108      214.537        667.1
  109      215.016       667.06
  110      215.494       667.44
  111      215.973       667.86
  112      216.452       668.06
  113       216.93       667.74
  114      217.408        667.1
  115      217.887       666.72
  116      218.365       666.64
  117      218.843       666.16
  118      219.321       666.28
  119      219.799       666.76
  120      220.278          667
  121      220.755       667.48
  122      221.233       668.36
  123      221.711       668.38
  124      222.189       667.96
  125      222.667       667.38
  126      223.144       666.46
  127      223.622       665.82
  128        224.1       665.42
  129      224.577       665.18
  130      225.055       664.88
  131      225.532       664.42
  132      226.009        664.4
  133      226.486       664.68
  134      226.964       664.76
  135      227.441       664.92
  136      227.918        665.4
  137      228.395       665.32
  138      228.872       665.26
  139      229.349       665.42
  140      229.826       665.12
  141      230.302       664.62
  142      230.779       664.76
  143      231.256        664.8
  144      231.732       664.88
  145      232.209       665.22
  146      232.685       665.66
  147      233.162       665.26
  148      233.638       664.18
  149      234.114       663.08
  150       234.59        662.3
  151      235.066       661.98
  152      235.543       662.22
  153      236.019        662.6
  154      236.495       662.84
  155       236.97       663.24
  156      237.446       663.12
  157      237.922       662.52
  158      238.398       662.54
  159      238.873       663.28
  160      239.349        663.8
  161      239.824       663.82
  162        240.3       663.54
  163      240.775          663
  164      241.251        662.4
  165      241.726       662.54
  166      242.201       663.18
  167      242.676       663.86
  168      243.151       664.98
  169      243.626       666.06
  170      244.101       666.52
  171      244.576       666.62
  172      245.051       667.02
  173      245.526        666.8
  174          246       666.12
  175      246.475        665.3
  176       246.95        664.5
  177      247.424       663.76
  178      247.899        663.4
  179      248.373       663.14
  180      248.847       662.98
  181      249.321        663.1
  182      249.796       662.76
  183       250.27       662.66
  184      250.744       663.22
  185      251.218       663.74
  186      251.692       663.96
  187      252.166       664.72
  188      252.639        665.2
  189      253.113       664.64
  190      253.587       663.94
  191       254.06       664.06
  192      254.534       664.28
  193      255.007       664.24
  194      255.481       664.82
  195      255.954       666.12
  196      256.427       666.86
  197      256.901       667.04
  198      257.374       667.66
  199      257.847       668.18
  200       258.32       667.36
  201      258.793       666.04
  202      259.266        665.3
  203      259.739       664.66
  204      260.211       663.42
  205      260.684       662.66
  206      261.157       662.56
  207      261.629       662.16
  208      262.102       661.14
  209      262.574       660.16
  210      263.046       659.34
  211      263.519        659.1
  212      263.991       659.72
  213      264.463       660.36
  214      264.935       660.96
  215      265.407       661.62
  216      265.879       661.52
  217      266.351       660.52
  218      266.823       659.72
  219      267.295       659.44
  220      267.766       659.38
  221      268.238       659.92
  222       268.71       660.72
  223      269.181       661.62
  224      269.653       662.44
  225      270.124          663
  226      270.595       662.78
  227      271.066        662.2
  228      271.538       661.46
  229      272.009       660.62
  230       272.48       659.64
  231      272.951       659.16
  232      273.422        659.5
  233      273.892       659.86
  234      274.363       659.92
  235      274.834       660.42
  236      275.305        660.9
  237      275.775       660.62
  238      276.246       660.14
  239      276.716       660.06
  240      277.186       659.98
  241      277.657       659.76
  242      278.127       659.46
  243      278.597       659.06
  244      279.067        658.4
  245      279.537       657.56
  246      280.007       657.32
  247      280.477       657.88
  248      280.947       658.92
  249      281.417        660.3
  250      281.886       661.34
  251      282.356       661.22
  252      282.825        660.3
  253      283.295       659.14
  254      283.764       657.82
  255      284.234       657.14
  256      284.703       657.18
  257      285.172       657.02
  258      285.641       656.88
  259       286.11        656.9
  260      286.579       656.52
  261      287.048       655.98
  262      287.517       655.88
  263      287.986       656.52
  264      288.454       657.08
  265      288.923       657.24
  266      289.392       657.72
  267       289.86       658.22
  268      290.329       657.68
  269      290.797       657.72
  270      291.265       658.62
  271      291.734       658.86
  272      292.202        658.8
  273       292.67       659.06
  274      293.138       658.66
  275      293.606       658.12
  276      294.074        657.5
  277      294.541       656.52
  278      295.009       655.84
  279      295.477       655.48
  280      295.944        655.2
  281      296.412        655.4
  282      296.879       655.82
  283      297.347       656.04
  284      297.814       656.32
  285      298.281       656.42
  286      298.749       656.02
  287      299.216       655.94
  288      299.683        655.8
  289       300.15       655.48
  290      300.616       654.94
  291      301.083       655.02
  292       301.55       655.06
  293      302.017        654.9
  294      302.483       654.84
  295       302.95       654.86
  296      303.416       654.74
  297      303.883       654.84
  298      304.349       655.38
  299      304.815       655.66
  300      305.281          656
  301      305.748       656.28
  302      306.214       656.64
  303       306.68       656.22
  304      307.146       655.28
  305      307.611        654.8
  306      308.077       654.52
  307      308.543       654.42
  308      309.008       655.34
  309      309.474        656.6
  310      309.939       657.58
  311      310.405       658.38
  312       310.87       657.98
  313      311.335       656.62
  314        311.8       655.42
  315      312.266       654.04
  316      312.731       652.54
  317      313.196        652.1
  318       313.66       652.54
  319      314.125       653.26
  320       314.59       653.98
  321      315.055        654.4
  322      315.519       654.22
  323      315.984       653.92
  324      316.448       653.88
  325      316.913       653.62
  326      317.377       653.56
  327      317.841        653.9
  328      318.305       653.62
  329      318.769       652.58
  330      319.233          652
  331      319.697       651.88
  332      320.161          652
  333      320.625       652.38
  334      321.089        652.7
  335      321.552       652.94
  336      322.016       652.94
  337      322.479       652.08
  338      322.943       650.94
  339      323.406       650.36
  340      323.869       649.88
  341      324.333       649.04
  342      324.796        648.7
  343      325.259        649.1
  344      325.722       650.04
  345      326.185       650.96
  346      326.647        652.1
  347       327.11       653.02
  348      327.573       653.28
  349      328.035       652.62
  350      328.498       651.42
  351       328.96       650.54
  352      329.423       649.98
  353      329.885       649.74
  354      330.347       649.74
  355       330.81       650.32
  356      331.272        650.7
  357      331.734       650.88
  358      332.196       651.18
  359      332.657       651.54
  360      333.119        651.7
  361      333.581        651.3
  362      334.043       650.38
  363      334.504       649.28
  364      334.966        648.5
  365      335.427       647.84
  366      335.888       647.54
  367       336.35       647.96
  368      336.811        648.8
  369      337.272       649.36
  370      337.733       649.68
  371      338.194       650.16
  372      338.655       650.48
  373      339.115        650.1
  374      339.576       649.66
  375      340.037       649.52
  376      340.497       649.48
  377      340.958       649.16
  378      341.418       649.24
  379      341.879       649.94
  380      342.339        650.6
  381      342.799        651.1
  382      343.259       652.04
  383      343.719       652.86
  384      344.179       653.24
  385      344.639       653.54
  386      345.099       653.04
  387      345.559       651.68
  388      346.018       650.48
  389      346.478       649.24
  390      346.937       647.76
  391      347.397       646.86
  392      347.856       646.94
  393      348.315       647.32
  394      348.774       647.44
  395      349.234       647.24
  396      349.693       647.52
  397      350.152       647.94
  398       350.61       647.68
  399      351.069       647.78
  400      351.528       648.36
  401      351.987       648.38
  402      352.445       647.98
  403      352.904       647.82
  404      353.362        647.1
  405       353.82       646.52
  406      354.279       646.92
  407      354.737        647.6
  408      355.195       647.86
  409      355.653        648.2
  410      356.111       648.52
  411      356.569       648.54
  412      357.027       648.32
  413      357.484       647.88
  414      357.942        647.2
  415      358.399       646.26
  416      358.857       645.36
  417      359.314       644.96
  418      359.772       645.42
  419      360.229       646.06
  420      360.686       646.38
  421      361.143       646.16
  422        361.6        645.6
  423      362.057       645.24
  424      362.514       645.08
  425      362.971       645.12
  426      363.427       645.14
  427      363.884       644.96
  428       364.34       644.76
  429      364.797       645.26
  430      365.253       646.12
  431      365.709       646.44
  432      366.166       646.44
  433      366.622       646.18
  434      367.078       645.44
  435      367.534       644.84
  436       367.99       644.92
  437      368.445       645.86
  438      368.901       646.46
  439      369.357       646.18
  440      369.812        645.5
  441      370.268       644.98
  442      370.723       644.18
  443      371.179       643.48
  444      371.634        643.8
  445      372.089       644.58
  446      372.544       645.38
  447      372.999       646.24
  448      373.454       647.04
  449      373.909       647.36
  450      374.364       647.24
  451      374.818       646.82
  452      375.273       645.92
  453      375.727        645.2
  454      376.182       644.94
  455      376.636       644.98
  456       377.09       645.68
  457      377.545       646.86
  458      377.999       647.98
  459      378.453       648.82
  460      378.907        649.5
  461      379.361        649.7
  462      379.814       649.42
  463      380.268       648.86
  464      380.722          648
  465      381.175       646.84
  466      381.629        645.8
  467      382.082       645.22
  468      382.535       645.16
  469      382.989       645.24
  470      383.442       645.68
  471      383.895        646.1
  472      384.348       646.34
  473      384.801       646.62
  474      385.253       647.26
  475      385.706       647.78
  476      386.159       648.14
  477      386.611       648.24
  478      387.064       648.02
  479      387.516       647.66
  480      387.968       647.24
  481      388.421       646.72
  482      388.873       646.24
  483      389.325       646.24
  484      389.777       646.58
  485      390.229          647
  486      390.681       647.58
  487      391.132       648.44
  488      391.584       648.62
  489      392.035       647.96
  490      392.487       647.52
  491      392.938        646.7
  492       393.39       645.44
  493      393.841       645.42
  494      394.292       646.26
  495      394.743        646.8
  496      395.194       647.88
  497      395.645       649.36
  498      396.096       650.22
  499      396.546       650.72
  500      396.997       650.96
  501      397.448       650.58
  502      397.898       649.66
  503      398.349       648.54
  504      398.799       647.64
  505      399.249       646.62
  506      399.699        645.7
  507      400.149       645.48
  508      400.599       645.04
  509      401.049       644.78
  510      401.499       645.36
  511      401.949        646.2
  512      402.398        646.8
  513      402.848       648.18
  514      403.297       649.48
  515      403.747       650.18
  516      404.196       650.66
  517      404.645       650.86
  518      405.094        650.3
  519      405.543       649.66
  520      405.992       649.64
  521      406.441       649.78
  522       406.89       649.74
  523      407.339       649.44
  524      407.787       648.66
  525      408.236       647.48
  526      408.684       646.78
  527      409.132       646.78
  528      409.581       647.32
  529      410.029       648.04
  530      410.477        648.9
  531      410.925       649.48
  532      411.373       649.74
  533      411.821       649.68
  534      412.269       649.86
  535      412.716       650.08
  536      413.164       650.24
  537      413.611       650.28
  538      414.059       650.04
  539      414.506       649.36
  540      414.953        648.9
  541        415.4       648.76
  542      415.847        648.9
  543      416.294        649.7
  544      416.741       651.06
  545      417.188        651.8
  546      417.635       651.68
  547      418.081        651.5
  548      418.528       650.88
  549      418.974       650.32
  550      419.421       650.28
  551      419.867       650.68
  552      420.313       651.32
  553      420.759       651.98
  554      421.205       652.22
  555      421.651       651.94
  556      422.097       651.14
  557      422.543       650.02
  558      422.989       649.52
  559      423.434       649.24
  560       423.88       649.64
  561      424.325       650.98
  562       424.77        652.5
  563      425.216        653.4
  564      425.661       653.46
  565      426.106       652.94
  566      426.551       652.42
  567      426.996       651.92
  568       427.44       651.18
  569      427.885       650.86
  570       428.33       650.84
  571      428.774       651.34
  572      429.219       652.48
  573      429.663        654.1
  574      430.107       655.76
  575      430.551        657.3
  576      430.996       657.62
  577       431.44       656.42
  578      431.883       654.98
  579      432.327        654.4
  580      432.771       654.36
  581      433.215       654.88
  582      433.658       655.98
  583      434.102       656.88
  584      434.545       657.14
  585      434.988       656.82
  586      435.431       656.26
  587      435.875       655.62
  588      436.318       655.52
  589      436.761       655.58
  590      437.203       655.62
  591      437.646       656.06
  592      438.089       656.78
  593      438.531       657.22
  594      438.974       657.48
  595      439.416       657.48
  596      439.859        657.1
  597      440.301          657
  598      440.743       656.94
  599      441.185       656.46
  600      441.627       655.84
  601      442.069       655.28
  602       442.51        654.6
  603      442.952        654.2
  604      443.394       654.58
  605      443.835        655.3
  606      444.277       656.02
  607      444.718       657.22
  608      445.159       658.64
  609        445.6       659.44
  610      446.041        660.1
