scansci Spectrometer Data File
--- Measurement Setting ---
Type: Sample Spectrum
Date: Mon Oct 16 16:23:33 2023
User: (Reserved by scansci)
Serial: (Reserved by scansci)
Channel: No. 11
Integration Time: 1
Average: 10
Boxcar: 2
Electrical Dark: No-corrected
Time Normalize: (Reserved by scansci)
Dual-beam: (Reserved by scansci)
Reference Ch: (Reserved by scansci)
--- Measurement Data ---
Pixel   Wavelength   Intensity
    0        344.4      637.433
    1      344.867      637.325
    2      345.334       637.24
    3      345.801       637.24
    4      346.268       637.14
    5      346.735       637.68
    6      347.202        638.3
    7      347.669       638.66
    8      348.135        639.1
    9      348.602       639.62
   10      349.068        639.5
   11      349.535       639.68
   12      350.001       640.54
   13      350.467        640.7
   14      350.933       640.46
   15      351.399       640.76
   16      351.866       640.76
   17      352.331       640.34
   18      352.797        640.3
   19      353.263       640.26
   20      353.729       639.88
   21      354.194        639.4
   22       354.66        639.1
   23      355.126       638.82
   24      355.591        638.6
   25      356.056       638.34
   26      356.522       638.32
   27      356.987        638.3
   28      357.452          639
   29      357.917       640.16
   30      358.382       641.26
   31      358.847       642.24
   32      359.312       642.82
   33      359.776       642.48
   34      360.241       641.72
   35      360.706       641.12
   36       361.17       640.94
   37      361.634       641.26
   38      362.099          642
   39      362.563       642.56
   40      363.027       642.92
   41      363.491        642.4
   42      363.955       641.44
   43      364.419       640.48
   44      364.883       639.74
   45      365.347        639.1
   46      365.811        638.9
   47      366.274       638.94
   48      366.738       639.34
   49      367.201       639.98
   50      367.665       640.26
   51      368.128       640.32
   52      368.592       640.26
   53      369.055       639.52
   54      369.518       638.84
   55      369.981       639.34
   56      370.444       640.28
   57      370.907       640.88
   58       371.37        641.1
   59      371.832        641.1
   60      372.295       641.06
   61      372.757       641.02
   62       373.22       641.26
   63      373.682       642.14
   64      374.145       642.68
   65      374.607       642.28
   66      375.069       641.32
   67      375.531        640.1
   68      375.993       639.02
   69      376.455        638.8
   70      376.917       638.88
   71      377.379       639.28
   72      377.841       640.16
   73      378.302        640.9
   74      378.764          641
   75      379.225       640.52
   76      379.687       640.12
   77      380.148          640
   78      380.609       640.06
   79      381.071       640.06
   80      381.532       640.42
   81      381.993        640.4
   82      382.454       640.26
   83      382.915       640.08
   84      383.375       640.08
   85      383.836        640.3
   86      384.297       640.94
   87      384.757       641.26
   88      385.218       641.36
   89      385.678       640.86
   90      386.138       639.86
   91      386.599       638.88
   92      387.059       637.98
   93      387.519       637.02
   94      387.979        636.7
   95      388.439       636.88
   96      388.899       636.78
   97      389.358       636.92
   98      389.818        637.3
   99      390.278        637.6
  100      390.737        637.8
  101      391.197       638.54
  102      391.656       639.28
  103      392.115       639.34
  104      392.575        639.4
  105      393.034       639.82
  106      393.493       639.66
  107      393.952       638.78
  108      394.411        638.4
  109       394.87        638.4
  110      395.328       638.36
  111      395.787        638.5
  112      396.246          639
  113      396.704       639.98
  114      397.163       640.74
  115      397.621       640.98
  116      398.079       641.02
  117      398.537       641.36
  118      398.995        641.3
  119      399.454       640.86
  120      399.911       640.72
  121      400.369       640.88
  122      400.827       640.74
  123      401.285        640.3
  124      401.743        639.9
  125        402.2       639.18
  126      402.658       638.46
  127      403.115       638.12
  128      403.572       638.42
  129       404.03        639.1
  130      404.487       639.68
  131      404.944       640.16
  132      405.401       640.44
  133      405.858       640.16
  134      406.315       639.42
  135      406.771       639.28
  136      407.228       639.18
  137      407.685          639
  138      408.141        639.3
  139      408.598       639.98
  140      409.054       640.14
  141       409.51       640.08
  142      409.967       640.04
  143      410.423       639.64
  144      410.879       639.24
  145      411.335       639.18
  146      411.791       639.34
  147      412.246       639.54
  148      412.702       639.72
  149      413.158       639.62
  150      413.613       639.72
  151      414.069       639.78
  152      414.524       639.78
  153       414.98       639.92
  154      415.435        640.5
  155       415.89       640.88
  156      416.345       641.02
  157        416.8       640.92
  158      417.255       640.86
  159       417.71        640.8
  160      418.165       640.84
  161      418.619       640.74
  162      419.074       640.54
  163      419.529        640.3
  164      419.983        639.9
  165      420.437       639.36
  166      420.892       639.34
  167      421.346       639.38
  168        421.8        639.2
  169      422.254       639.14
  170      422.708        639.3
  171      423.162       639.22
  172      423.616       639.22
  173       424.07       639.92
  174      424.523       640.56
  175      424.977       640.42
  176       425.43       640.42
  177      425.884       640.96
  178      426.337       640.74
  179       426.79       640.24
  180      427.243       640.22
  181      427.697       639.96
  182       428.15       639.52
  183      428.602       639.56
  184      429.055       639.78
  185      429.508       639.66
  186      429.961       639.52
  187      430.413        639.8
  188      430.866       640.34
  189      431.318       641.02
  190      431.771        642.5
  191      432.223       644.02
  192      432.675       644.16
  193      433.127       643.66
  194      433.579       642.88
  195      434.031       641.52
  196      434.483        640.1
  197      434.935       639.62
  198      435.387        639.9
  199      435.838       640.32
  200       436.29       640.54
  201      436.741        640.8
  202      437.193        640.5
  203      437.644       639.56
  204      438.095       638.82
  205      438.546       638.38
  206      438.997       638.02
  207      439.448       637.72
  208      439.899        637.6
  209       440.35       637.82
  210      440.801       638.14
  211      441.251       638.22
  212      441.702        638.6
  213      442.152       638.84
  214      442.603          638
  215      443.053          637
  216      443.503       636.46
  217      443.954        636.2
  218      444.404       636.52
  219      444.854        637.5
  220      445.304       638.56
  221      445.753        639.5
  222      446.203       640.76
  223      446.653        641.9
  224      447.102       642.64
  225      447.552       643.24
  226      448.001        643.5
  227      448.451       642.76
  228        448.9       641.34
  229      449.349        640.2
  230      449.798        639.1
  231      450.247        638.2
  232      450.696       637.94
  233      451.145       637.72
  234      451.594       637.68
  235      452.042       637.86
  236      452.491        638.2
  237      452.939       638.52
  238      453.388       638.96
  239      453.836       639.08
  240      454.285        639.6
  241      454.733       640.62
  242      455.181       641.68
  243      455.629       642.54
  244      456.077        642.9
  245      456.525       642.54
  246      456.972       641.82
  247       457.42       640.78
  248      457.868       639.68
  249      458.315       639.38
  250      458.763       639.18
  251       459.21        638.6
  252      459.657        638.4
  253      460.104       638.56
  254      460.552        638.8
  255      460.999       639.38
  256      461.446       640.18
  257      461.892       640.48
  258      462.339       640.34
  259      462.786       639.62
  260      463.233       638.76
  261      463.679       638.26
  262      464.125       638.36
  263      464.572       639.38
  264      465.018       640.08
  265      465.464       640.06
  266       465.91       639.44
  267      466.356        638.8
  268      466.802       638.12
  269      467.248       637.96
  270      467.694       638.76
  271       468.14       639.92
  272      468.585       640.28
  273      469.031       639.88
  274      469.476        639.6
  275      469.922       639.14
  276      470.367       638.54
  277      470.812       638.08
  278      471.257       637.76
  279      471.702       637.66
  280      472.147        637.9
  281      472.592       638.44
  282      473.037       639.44
  283      473.482       640.44
  284      473.926       641.28
  285      474.371       641.54
  286      474.815       641.26
  287      475.259       640.74
  288      475.704       640.44
  289      476.148       639.86
  290      476.592        639.3
  291      477.036        639.4
  292       477.48       640.02
  293      477.924       640.42
  294      478.368        641.1
  295      478.811       642.08
  296      479.255       642.84
  297      479.698       643.34
  298      480.142       644.16
  299      480.585       644.84
  300      481.028       645.06
  301      481.472       644.82
  302      481.915       644.46
  303      482.358       643.76
  304      482.801       642.88
  305      483.244       641.88
  306      483.686       641.18
  307      484.129       640.84
  308      484.572       640.66
  309      485.014       640.54
  310      485.456       640.86
  311      485.899       641.52
  312      486.341       641.84
  313      486.783       641.74
  314      487.225       641.82
  315      487.667       642.16
  316      488.109       641.74
  317      488.551       641.08
  318      488.993        641.2
  319      489.434        641.2
  320      489.876       640.62
  321      490.318       640.36
  322      490.759       640.64
  323        491.2       640.46
  324      491.641       640.18
  325      492.083       640.42
  326      492.524       640.84
  327      492.965        640.7
  328      493.406       640.68
  329      493.846       641.14
  330      494.287       641.42
  331      494.728       641.56
  332      495.168          642
  333      495.609       642.28
  334      496.049       642.08
  335      496.489       641.74
  336       496.93       641.44
  337       497.37        641.2
  338       497.81       641.18
  339       498.25        641.3
  340       498.69        641.2
  341      499.129        640.7
  342      499.569       640.12
  343      500.009       639.44
  344      500.448       638.76
  345      500.888       639.32
  346      501.327       640.62
  347      501.766       641.24
  348      502.206       641.72
  349      502.645       642.38
  350      503.084       641.78
  351      503.523       640.42
  352      503.961       639.76
  353        504.4        639.3
  354      504.839       638.68
  355      505.277       638.36
  356      505.716       638.44
  357      506.154       638.44
  358      506.593       638.84
  359      507.031       639.38
  360      507.469       639.44
  361      507.907        639.1
  362      508.345        638.4
  363      508.783       637.36
  364      509.221       636.48
  365      509.659       636.14
  366      510.096       636.54
  367      510.534        637.6
  368      510.971       638.28
  369      511.409        638.5
  370      511.846        638.8
  371      512.283       638.88
  372       512.72       638.52
  373      513.157       638.48
  374      513.594       638.64
  375      514.031       638.32
  376      514.468       638.08
  377      514.905       638.26
  378      515.341       638.54
  379      515.778        638.4
  380      516.214       638.52
  381       516.65       638.48
  382      517.087       638.28
  383      517.523       638.44
  384      517.959       639.34
  385      518.395       640.54
  386      518.831       641.78
  387      519.267       642.56
  388      519.702       642.56
  389      520.138       641.98
  390      520.574       640.98
  391      521.009       639.94
  392      521.444        639.1
  393       521.88       638.44
  394      522.315       638.22
  395       522.75       638.04
  396      523.185       637.76
  397       523.62       637.86
  398      524.055        638.5
  399       524.49       638.92
  400      524.924       639.62
  401      525.359       640.46
  402      525.794       640.98
  403      526.228       640.88
  404      526.662        640.8
  405      527.097        640.3
  406      527.531       639.24
  407      527.965       638.34
  408      528.399       638.22
  409      528.833        638.3
  410      529.267        638.8
  411        529.7       639.66
  412      530.134       640.14
  413      530.568        640.1
  414      531.001       640.02
  415      531.434       639.78
  416      531.868       639.42
  417      532.301       639.44
  418      532.734       639.54
  419      533.167       639.66
  420        533.6        639.6
  421      534.033       639.42
  422      534.466       639.28
  423      534.898       639.12
  424      535.331       638.82
  425      535.763       638.88
  426      536.196        639.6
  427      536.628       640.22
  428       537.06        640.4
  429      537.493       640.14
  430      537.925        639.5
  431      538.357       638.82
  432      538.788       638.76
  433       539.22       639.26
  434      539.652       640.18
  435      540.084       641.32
  436      540.515       642.12
  437      540.947        642.6
  438      541.378       642.98
  439      541.809       643.06
  440       542.24        643.1
  441      542.672       643.16
  442      543.103       642.72
  443      543.533       642.38
  444      543.964       642.44
  445      544.395       642.48
  446      544.826       642.34
  447      545.256        642.1
  448      545.687       641.82
  449      546.117       641.38
  450      546.547        640.6
  451      546.978       639.76
  452      547.408       638.98
  453      547.838       638.14
  454      548.268       637.54
  455      548.698       637.28
  456      549.127       637.52
  457      549.557       638.32
  458      549.987       639.32
  459      550.416       639.84
  460      550.846        640.3
  461      551.275       640.52
  462      551.704        640.8
  463      552.133       640.76
  464      552.562       640.78
  465      552.991       640.68
  466       553.42       640.76
  467      553.849       640.54
  468      554.278       640.36
  469      554.706       640.06
  470      555.135       639.62
  471      555.563       638.84
  472      555.991       637.96
  473       556.42       637.72
  474      556.848       637.88
  475      557.276       638.34
  476      557.704       638.96
  477      558.132       639.62
  478       558.56       639.46
  479      558.987       639.32
  480      559.415       639.62
  481      559.843        639.9
  482       560.27       639.86
  483      560.697       640.04
  484      561.125        640.3
  485      561.552       640.42
  486      561.979       640.48
  487      562.406       640.28
  488      562.833       639.86
  489       563.26        639.5
  490      563.686        639.1
  491      564.113        638.9
  492       564.54       638.94
  493      564.966       638.94
  494      565.392       639.02
  495      565.819       638.86
  496      566.245       638.84
  497      566.671       638.98
  498      567.097       638.52
  499      567.523       638.04
  500      567.949       637.58
  501      568.374       636.76
  502        568.8       636.42
  503      569.226        636.9
  504      569.651       636.62
  505      570.077       636.68
  506      570.502       637.34
  507      570.927       637.76
  508      571.352          638
  509      571.777       638.74
  510      572.202       639.02
  511      572.627       638.44
  512      573.052       637.76
  513      573.476        637.6
  514      573.901       637.58
  515      574.325       638.04
  516       574.75       638.96
  517      575.174        639.7
  518      575.598        639.9
  519      576.022       639.76
  520      576.446       639.14
  521       576.87        638.3
  522      577.294       637.88
  523      577.718       637.54
  524      578.142       637.66
  525      578.565       637.82
  526      578.989       637.96
  527      579.412       638.16
  528      579.835       638.64
  529      580.259       638.72
  530      580.682       638.88
  531      581.105       639.78
  532      581.528        640.7
  533      581.951        641.2
  534      582.373       641.44
  535      582.796       641.52
  536      583.219       640.86
  537      583.641       639.44
  538      584.063       638.28
  539      584.486        638.1
  540      584.908       638.04
  541       585.33          638
  542      585.752        638.8
  543      586.174       639.62
  544      586.596       639.88
  545      587.018       640.42
  546      587.439       640.92
  547      587.861       640.64
  548      588.282       640.12
  549      588.704        639.8
  550      589.125       639.42
  551      589.546       639.28
  552      589.967       639.26
  553      590.388        639.4
  554      590.809       639.42
  555       591.23       639.38
  556      591.651       639.58
  557      592.071       640.18
  558      592.492       640.64
  559      592.912       640.68
  560      593.333       640.64
  561      593.753        640.2
  562      594.173       639.62
  563      594.593       638.96
  564      595.013       638.42
  565      595.433       637.82
  566      595.853       637.64
  567      596.273       637.34
  568      596.693       637.06
  569      597.112       637.18
  570      597.532       637.56
  571      597.951        637.7
  572       598.37        637.8
  573      598.789       638.38
  574      599.208        639.2
  575      599.627       639.76
  576      600.046        640.1
  577      600.465        640.6
  578      600.884        640.6
  579      601.303       639.86
  580      601.721       639.52
  581      602.139       639.54
  582      602.558       639.42
  583      602.976       639.52
  584      603.394       639.98
  585      603.812       640.08
  586       604.23       639.98
  587      604.648       639.94
  588      605.066        640.2
  589      605.484       640.56
  590      605.901       640.92
  591      606.319       641.18
  592      606.736       641.44
  593      607.154        641.2
  594      607.571       640.92
  595      607.988       640.74
  596      608.405       640.46
  597      608.822       640.04
  598      609.239       639.56
  599      609.656       638.76
  600      610.072       638.08
  601      610.489       637.92
  602      610.905       638.42
  603      611.322       639.06
  604      611.738       639.68
  605      612.154        640.1
  606       612.57        640.2
  607      612.986        639.8
  608      613.402       639.42
  609      613.818       639.54
  610      614.234       639.64
