scansci Spectrometer Data File
--- Measurement Setting ---
Type: Sample Spectrum
Date: Mon Oct 16 16:59:13 2023
User: (Reserved by scansci)
Serial: (Reserved by scansci)
Channel: No. 11
Integration Time: 1
Average: 10
Boxcar: 2
Electrical Dark: No-corrected
Time Normalize: (Reserved by scansci)
Dual-beam: (Reserved by scansci)
Reference Ch: (Reserved by scansci)
--- Measurement Data ---
Pixel   Wavelength   Intensity
    0        344.4      671.767
    1      344.867       672.05
    2      345.334       672.36
    3      345.801        672.1
    4      346.268        671.9
    5      346.735       671.94
    6      347.202       671.58
    7      347.669        671.1
    8      348.135       671.28
    9      348.602       671.08
   10      349.068       670.18
   11      349.535        669.2
   12      350.001       668.32
   13      350.467       667.44
   14      350.933       667.14
   15      351.399       667.08
   16      351.866       667.14
   17      352.331       667.28
   18      352.797       667.38
   19      353.263       667.22
   20      353.729       667.42
   21      354.194       667.92
   22       354.66       668.08
   23      355.126       668.24
   24      355.591       668.78
   25      356.056       669.56
   26      356.522       670.46
   27      356.987       671.28
   28      357.452        672.1
   29      357.917       672.68
   30      358.382        672.6
   31      358.847       672.22
   32      359.312       672.12
   33      359.776       671.86
   34      360.241       671.44
   35      360.706       671.26
   36       361.17        671.2
   37      361.634       671.06
   38      362.099       671.04
   39      362.563          671
   40      363.027       670.96
   41      363.491       670.84
   42      363.955       670.54
   43      364.419       670.24
   44      364.883       669.72
   45      365.347       669.18
   46      365.811       668.56
   47      366.274       668.12
   48      366.738       668.12
   49      367.201       668.48
   50      367.665       668.78
   51      368.128       669.14
   52      368.592        669.7
   53      369.055       669.84
   54      369.518       669.84
   55      369.981       670.06
   56      370.444       670.32
   57      370.907        670.2
   58       371.37          670
   59      371.832       669.84
   60      372.295       669.68
   61      372.757       669.42
   62       373.22       669.14
   63      373.682       668.64
   64      374.145       668.46
   65      374.607        668.7
   66      375.069       669.06
   67      375.531        669.3
   68      375.993       669.78
   69      376.455       670.14
   70      376.917       670.04
   71      377.379        669.7
   72      377.841        669.8
   73      378.302       669.98
   74      378.764       670.04
   75      379.225       670.04
   76      379.687       670.46
   77      380.148       671.04
   78      380.609       671.66
   79      381.071       672.08
   80      381.532       672.04
   81      381.993       671.68
   82      382.454        671.2
   83      382.915       670.76
   84      383.375       670.48
   85      383.836       670.26
   86      384.297       669.86
   87      384.757       669.56
   88      385.218       669.76
   89      385.678       670.04
   90      386.138       670.46
   91      386.599       671.62
   92      387.059       672.98
   93      387.519       673.88
   94      387.979       674.94
   95      388.439       676.06
   96      388.899       676.18
   97      389.358       675.16
   98      389.818       673.98
   99      390.278       673.22
  100      390.737       672.66
  101      391.197       672.54
  102      391.656       672.86
  103      392.115        672.8
  104      392.575       672.24
  105      393.034       671.78
  106      393.493        671.1
  107      393.952       670.48
  108      394.411       670.68
  109       394.87       671.08
  110      395.328       671.04
  111      395.787        671.2
  112      396.246       671.74
  113      396.704       671.94
  114      397.163       671.94
  115      397.621        672.2
  116      398.079       672.44
  117      398.537       672.22
  118      398.995        671.7
  119      399.454        671.2
  120      399.911       671.04
  121      400.369       670.92
  122      400.827       671.06
  123      401.285       671.26
  124      401.743       671.24
  125        402.2       670.94
  126      402.658       670.52
  127      403.115       670.32
  128      403.572       670.64
  129       404.03       671.26
  130      404.487       672.26
  131      404.944       673.34
  132      405.401       673.64
  133      405.858       673.04
  134      406.315       671.84
  135      406.771       670.28
  136      407.228       669.28
  137      407.685       668.92
  138      408.141       669.28
  139      408.598       670.12
  140      409.054       670.54
  141       409.51       670.38
  142      409.967        670.2
  143      410.423       669.58
  144      410.879       669.08
  145      411.335       669.36
  146      411.791       669.94
  147      412.246       670.88
  148      412.702       672.18
  149      413.158       673.62
  150      413.613       674.56
  151      414.069       674.68
  152      414.524       673.92
  153       414.98        672.9
  154      415.435       671.62
  155       415.89       670.48
  156      416.345       669.84
  157        416.8       669.64
  158      417.255        669.4
  159       417.71       668.84
  160      418.165       668.08
  161      418.619       667.14
  162      419.074        666.6
  163      419.529        666.6
  164      419.983       666.96
  165      420.437       667.48
  166      420.892       668.04
  167      421.346       668.38
  168        421.8       668.52
  169      422.254       668.28
  170      422.708       668.12
  171      423.162        668.2
  172      423.616       668.18
  173       424.07       668.64
  174      424.523       669.88
  175      424.977       670.92
  176       425.43       671.94
  177      425.884       673.24
  178      426.337       673.62
  179       426.79       673.36
  180      427.243        673.2
  181      427.697       672.22
  182       428.15       670.36
  183      428.602       668.82
  184      429.055       667.14
  185      429.508       665.52
  186      429.961       665.28
  187      430.413          666
  188      430.866       666.74
  189      431.318          668
  190      431.771       669.44
  191      432.223        670.3
  192      432.675       670.72
  193      433.127       671.02
  194      433.579        671.2
  195      434.031       671.28
  196      434.483       671.08
  197      434.935       670.86
  198      435.387        670.4
  199      435.838        669.6
  200       436.29       668.72
  201      436.741       668.32
  202      437.193       668.26
  203      437.644       668.78
  204      438.095       669.28
  205      438.546        669.8
  206      438.997       670.36
  207      439.448       670.58
  208      439.899       670.34
  209       440.35       670.58
  210      440.801       670.96
  211      441.251       671.08
  212      441.702       671.34
  213      442.152       671.78
  214      442.603        671.7
  215      443.053       671.32
  216      443.503        670.9
  217      443.954       670.32
  218      444.404        669.9
  219      444.854       669.84
  220      445.304       669.76
  221      445.753       669.86
  222      446.203       670.62
  223      446.653       671.62
  224      447.102       671.94
  225      447.552       672.14
  226      448.001       672.48
  227      448.451        672.3
  228        448.9       671.52
  229      449.349       670.84
  230      449.798       670.36
  231      450.247       669.56
  232      450.696       668.98
  233      451.145       669.08
  234      451.594        669.8
  235      452.042        670.5
  236      452.491       671.16
  237      452.939       671.72
  238      453.388       671.76
  239      453.836       671.26
  240      454.285       670.88
  241      454.733       670.74
  242      455.181        669.8
  243      455.629       668.56
  244      456.077        667.8
  245      456.525        667.4
  246      456.972       667.14
  247       457.42       667.44
  248      457.868       668.46
  249      458.315       668.96
  250      458.763        668.5
  251       459.21       668.18
  252      459.657        668.3
  253      460.104        668.3
  254      460.552        668.8
  255      460.999       669.86
  256      461.446       670.34
  257      461.892       670.48
  258      462.339       670.24
  259      462.786        669.8
  260      463.233       669.54
  261      463.679       669.42
  262      464.125       669.42
  263      464.572       669.52
  264      465.018       669.64
  265      465.464        669.7
  266       465.91       669.72
  267      466.356       669.56
  268      466.802       669.46
  269      467.248       669.52
  270      467.694       669.44
  271       468.14       669.78
  272      468.585       670.22
  273      469.031       670.54
  274      469.476       670.88
  275      469.922       671.02
  276      470.367        670.5
  277      470.812       669.78
  278      471.257        669.1
  279      471.702        668.2
  280      472.147       667.82
  281      472.592        668.3
  282      473.037       669.04
  283      473.482       669.84
  284      473.926       670.92
  285      474.371       671.48
  286      474.815       671.24
  287      475.259       670.96
  288      475.704       670.54
  289      476.148       669.68
  290      476.592          669
  291      477.036       669.44
  292       477.48       669.88
  293      477.924       670.38
  294      478.368       671.28
  295      478.811       671.76
  296      479.255       671.38
  297      479.698       671.22
  298      480.142        670.8
  299      480.585       670.16
  300      481.028       670.22
  301      481.472          670
  302      481.915       669.16
  303      482.358       668.66
  304      482.801        668.9
  305      483.244       669.38
  306      483.686       670.02
  307      484.129       670.58
  308      484.572       671.24
  309      485.014       671.22
  310      485.456       670.26
  311      485.899        669.5
  312      486.341        669.5
  313      486.783        669.7
  314      487.225       669.82
  315      487.667       670.64
  316      488.109        671.6
  317      488.551       671.86
  318      488.993       671.58
  319      489.434       671.54
  320      489.876       671.14
  321      490.318       670.08
  322      490.759       669.26
  323        491.2       668.66
  324      491.641       668.18
  325      492.083       667.78
  326      492.524       667.82
  327      492.965       667.88
  328      493.406       668.22
  329      493.846       668.84
  330      494.287        669.3
  331      494.728       669.76
  332      495.168       670.72
  333      495.609       671.22
  334      496.049       670.84
  335      496.489        670.6
  336       496.93       670.56
  337       497.37       669.68
  338       497.81        668.7
  339       498.25       668.12
  340       498.69       667.96
  341      499.129       667.92
  342      499.569       668.54
  343      500.009       669.42
  344      500.448       670.02
  345      500.888       669.98
  346      501.327       669.74
  347      501.766       669.58
  348      502.206       669.44
  349      502.645       669.62
  350      503.084       670.28
  351      503.523       671.02
  352      503.961       671.18
  353        504.4       671.26
  354      504.839       671.16
  355      505.277       670.98
  356      505.716       670.68
  357      506.154       670.24
  358      506.593       669.86
  359      507.031       669.88
  360      507.469        669.9
  361      507.907        669.9
  362      508.345       670.46
  363      508.783        671.1
  364      509.221       671.36
  365      509.659       671.32
  366      510.096       671.06
  367      510.534       670.54
  368      510.971       670.08
  369      511.409       669.82
  370      511.846       669.94
  371      512.283       670.08
  372       512.72        670.2
  373      513.157       670.14
  374      513.594       669.98
  375      514.031       669.76
  376      514.468       670.06
  377      514.905       670.84
  378      515.341       671.64
  379      515.778       672.38
  380      516.214       672.88
  381       516.65       672.84
  382      517.087       672.52
  383      517.523       672.12
  384      517.959       671.46
  385      518.395       670.78
  386      518.831       670.46
  387      519.267       670.14
  388      519.702       669.98
  389      520.138       670.22
  390      520.574       670.34
  391      521.009       670.36
  392      521.444       670.34
  393       521.88       669.76
  394      522.315       668.94
  395       522.75        668.5
  396      523.185       668.08
  397       523.62       667.64
  398      524.055       667.98
  399       524.49       668.62
  400      524.924       669.08
  401      525.359        669.1
  402      525.794       668.62
  403      526.228       668.14
  404      526.662       667.72
  405      527.097       666.84
  406      527.531       665.98
  407      527.965        665.9
  408      528.399       665.54
  409      528.833       665.16
  410      529.267       665.72
  411        529.7       666.98
  412      530.134       667.94
  413      530.568       668.82
  414      531.001       669.26
  415      531.434       668.86
  416      531.868       667.86
  417      532.301        666.6
  418      532.734       665.78
  419      533.167       665.58
  420        533.6       665.84
  421      534.033       666.48
  422      534.466       667.42
  423      534.898       667.72
  424      535.331       667.36
  425      535.763       666.82
  426      536.196       666.38
  427      536.628       666.48
  428       537.06       667.16
  429      537.493       668.18
  430      537.925       669.34
  431      538.357        670.5
  432      538.788        671.3
  433       539.22       671.92
  434      539.652       672.86
  435      540.084       673.78
  436      540.515        673.9
  437      540.947       673.66
  438      541.378       673.12
  439      541.809       672.06
  440       542.24        670.9
  441      542.672       670.46
  442      543.103       669.98
  443      543.533       669.24
  444      543.964        668.4
  445      544.395       667.52
  446      544.826       666.78
  447      545.256       666.36
  448      545.687       666.48
  449      546.117       667.18
  450      546.547       668.32
  451      546.978       669.12
  452      547.408       669.66
  453      547.838       669.88
  454      548.268       669.72
  455      548.698       669.62
  456      549.127       669.76
  457      549.557       669.84
  458      549.987       670.14
  459      550.416        670.6
  460      550.846       670.84
  461      551.275       670.78
  462      551.704       670.84
  463      552.133       670.74
  464      552.562       670.16
  465      552.991       669.18
  466       553.42       668.38
  467      553.849       667.88
  468      554.278        667.4
  469      554.706        667.2
  470      555.135       667.48
  471      555.563       667.72
  472      555.991       667.66
  473       556.42       668.12
  474      556.848       668.66
  475      557.276       668.82
  476      557.704       669.02
  477      558.132       669.58
  478       558.56        669.7
  479      558.987       669.32
  480      559.415       668.76
  481      559.843       668.32
  482       560.27       667.94
  483      560.697       667.66
  484      561.125       668.04
  485      561.552          669
  486      561.979       669.66
  487      562.406       669.88
  488      562.833       670.18
  489       563.26       670.04
  490      563.686       669.54
  491      564.113        669.1
  492       564.54        668.8
  493      564.966       668.52
  494      565.392       668.64
  495      565.819       668.72
  496      566.245       668.44
  497      566.671       668.04
  498      567.097       667.28
  499      567.523       666.38
  500      567.949       666.44
  501      568.374       667.22
  502        568.8       667.58
  503      569.226          668
  504      569.651       668.38
  505      570.077        668.6
  506      570.502       668.96
  507      570.927       669.42
  508      571.352       669.66
  509      571.777       669.96
  510      572.202       669.82
  511      572.627       669.18
  512      573.052       668.84
  513      573.476       669.16
  514      573.901        669.5
  515      574.325       669.74
  516       574.75       669.96
  517      575.174       670.22
  518      575.598       670.42
  519      576.022        670.6
  520      576.446        670.4
  521       576.87       670.18
  522      577.294       669.92
  523      577.718       669.28
  524      578.142       668.76
  525      578.565       668.72
  526      578.989        668.7
  527      579.412       668.62
  528      579.835       668.68
  529      580.259       668.68
  530      580.682       668.62
  531      581.105        668.6
  532      581.528        668.7
  533      581.951       669.18
  534      582.373       669.66
  535      582.796        670.3
  536      583.219       671.22
  537      583.641       672.06
  538      584.063        671.9
  539      584.486       671.06
  540      584.908        670.3
  541       585.33       669.18
  542      585.752       667.64
  543      586.174       667.18
  544      586.596          668
  545      587.018       668.64
  546      587.439       669.26
  547      587.861       669.84
  548      588.282       669.88
  549      588.704       669.72
  550      589.125       669.54
  551      589.546       669.56
  552      589.967       670.16
  553      590.388        670.9
  554      590.809       670.92
  555       591.23       670.74
  556      591.651       670.68
  557      592.071       670.14
  558      592.492       669.08
  559      592.912        668.4
  560      593.333       667.98
  561      593.753       667.34
  562      594.173        666.9
  563      594.593          667
  564      595.013       667.38
  565      595.433        667.6
  566      595.853       667.86
  567      596.273       668.72
  568      596.693       669.64
  569      597.112        670.1
  570      597.532       670.68
  571      597.951       671.28
  572       598.37        671.6
  573      598.789        671.7
  574      599.208       671.64
  575      599.627       671.14
  576      600.046        670.9
  577      600.465       670.68
  578      600.884       670.52
  579      601.303       670.66
  580      601.721       671.08
  581      602.139       670.98
  582      602.558       670.54
  583      602.976       669.96
  584      603.394       669.18
  585      603.812       668.46
  586       604.23        667.8
  587      604.648       667.74
  588      605.066       668.08
  589      605.484        668.6
  590      605.901       669.44
  591      606.319       670.68
  592      606.736       671.62
  593      607.154        672.2
  594      607.571       672.48
  595      607.988       671.76
  596      608.405       670.74
  597      608.822       669.76
  598      609.239        669.1
  599      609.656        668.5
  600      610.072       668.32
  601      610.489       668.36
  602      610.905       668.64
  603      611.322       668.92
  604      611.738        669.2
  605      612.154       669.46
  606       612.57       669.14
  607      612.986       668.48
  608      613.402       667.88
  609      613.818       667.18
  610      614.234       666.58
