scansci Spectrometer Data File
--- Measurement Setting ---
Type: Sample Spectrum
Date: Mon Oct 16 16:58:42 2023
User: (Reserved by scansci)
Serial: (Reserved by scansci)
Channel: No. 11
Integration Time: 1
Average: 10
Boxcar: 2
Electrical Dark: No-corrected
Time Normalize: (Reserved by scansci)
Dual-beam: (Reserved by scansci)
Reference Ch: (Reserved by scansci)
--- Measurement Data ---
Pixel   Wavelength   Intensity
    0        162.5      611.467
    1      162.985      610.725
    2      163.469       610.38
    3      163.954       609.52
    4      164.439        609.3
    5      164.923       609.28
    6      165.408        608.7
    7      165.892       608.16
    8      166.377       608.26
    9      166.861       607.98
   10      167.345       607.44
   11       167.83       607.54
   12      168.314       607.82
   13      168.798       607.74
   14      169.282        607.5
   15      169.766       607.78
   16       170.25       607.72
   17      170.734       606.64
   18      171.218       605.68
   19      171.702       605.46
   20      172.185       605.08
   21      172.669       604.96
   22      173.153       605.58
   23      173.636       605.78
   24       174.12       605.74
   25      174.603          606
   26      175.087       607.04
   27       175.57        608.5
   28      176.053       609.92
   29      176.537       610.82
   30       177.02       611.26
   31      177.503        611.1
   32      177.986       610.54
   33      178.469       609.76
   34      178.952       609.58
   35      179.435       609.88
   36      179.918       609.78
   37      180.401       609.52
   38      180.884        609.5
   39      181.366       609.14
   40      181.849       608.82
   41      182.332       608.76
   42      182.814       608.66
   43      183.297       608.38
   44      183.779       608.06
   45      184.262       607.88
   46      184.744       607.84
   47      185.226       607.82
   48      185.708       608.28
   49      186.191       609.04
   50      186.673       609.62
   51      187.155       610.14
   52      187.637       610.16
   53      188.119       609.54
   54        188.6          609
   55      189.082       608.82
   56      189.564        609.1
   57      190.046       609.62
   58      190.527        610.1
   59      191.009       610.34
   60      191.491          610
   61      191.972        608.9
   62      192.454       608.12
   63      192.935       607.84
   64      193.416       607.64
   65      193.897       607.76
   66      194.379        607.9
   67       194.86       607.84
   68      195.341       607.62
   69      195.822       607.44
   70      196.303       607.18
   71      196.784        607.4
   72      197.265       607.78
   73      197.746       608.12
   74      198.226       607.82
   75      198.707       607.42
   76      199.188       607.32
   77      199.668        607.4
   78      200.149       607.96
   79      200.629       608.96
   80       201.11       609.86
   81       201.59       610.12
   82       202.07       609.92
   83       202.55       609.18
   84      203.031       608.48
   85      203.511       608.18
   86      203.991       607.68
   87      204.471       607.42
   88      204.951       607.58
   89      205.431       608.38
   90       205.91       609.38
   91       206.39       610.38
   92       206.87       611.24
   93      207.349       611.86
   94      207.829        611.5
   95      208.309          610
   96      208.788       609.12
   97      209.267       608.46
   98      209.747        607.8
   99      210.226       607.86
  100      210.705       608.46
  101      211.185        608.6
  102      211.664       608.74
  103      212.143       608.88
  104      212.622       609.22
  105      213.101       609.44
  106      213.579       609.24
  107      214.058        609.2
  108      214.537        609.4
  109      215.016       609.18
  110      215.494       609.24
  111      215.973       609.22
  112      216.452       608.74
  113       216.93        608.4
  114      217.408       608.24
  115      217.887       608.06
  116      218.365        608.5
  117      218.843       608.96
  118      219.321       608.84
  119      219.799       608.34
  120      220.278       607.44
  121      220.755       606.36
  122      221.233       606.22
  123      221.711       606.88
  124      222.189       607.52
  125      222.667       607.84
  126      223.144       608.62
  127      223.622       609.22
  128        224.1       609.08
  129      224.577       608.98
  130      225.055       609.56
  131      225.532       610.02
  132      226.009       610.02
  133      226.486        609.8
  134      226.964       609.48
  135      227.441       608.88
  136      227.918       608.02
  137      228.395       607.46
  138      228.872       607.36
  139      229.349       607.54
  140      229.826       607.92
  141      230.302       608.62
  142      230.779       609.24
  143      231.256       609.78
  144      231.732        609.9
  145      232.209       609.46
  146      232.685       608.86
  147      233.162        608.3
  148      233.638          608
  149      234.114       608.26
  150       234.59       608.92
  151      235.066       609.52
  152      235.543          610
  153      236.019       610.26
  154      236.495        610.2
  155       236.97       609.88
  156      237.446       608.98
  157      237.922       607.54
  158      238.398        606.1
  159      238.873        605.2
  160      239.349       604.46
  161      239.824       604.56
  162        240.3       605.04
  163      240.775       605.28
  164      241.251       604.66
  165      241.726       604.22
  166      242.201       603.84
  167      242.676       603.52
  168      243.151       603.68
  169      243.626       604.36
  170      244.101        604.8
  171      244.576       605.02
  172      245.051       605.58
  173      245.526       605.88
  174          246       605.72
  175      246.475       605.86
  176       246.95       605.92
  177      247.424        605.4
  178      247.899       604.94
  179      248.373        604.9
  180      248.847       605.02
  181      249.321       605.12
  182      249.796       605.58
  183       250.27          606
  184      250.744       606.24
  185      251.218        606.2
  186      251.692       606.34
  187      252.166       606.46
  188      252.639       606.36
  189      253.113       606.58
  190      253.587        607.2
  191       254.06       607.88
  192      254.534       608.56
  193      255.007        609.6
  194      255.481       610.24
  195      255.954       610.14
  196      256.427       609.68
  197      256.901       609.04
  198      257.374        608.2
  199      257.847       607.76
  200       258.32        607.8
  201      258.793       607.74
  202      259.266       607.78
  203      259.739       607.48
  204      260.211        606.8
  205      260.684        606.3
  206      261.157       606.28
  207      261.629       605.78
  208      262.102       605.48
  209      262.574       605.92
  210      263.046        606.7
  211      263.519       607.14
  212      263.991       608.16
  213      264.463        609.2
  214      264.935       609.36
  215      265.407        609.1
  216      265.879       608.84
  217      266.351       608.46
  218      266.823       608.06
  219      267.295       608.12
  220      267.766       608.38
  221      268.238       608.64
  222       268.71        608.8
  223      269.181       609.14
  224      269.653       609.18
  225      270.124       609.16
  226      270.595        609.2
  227      271.066       608.74
  228      271.538       608.14
  229      272.009       607.92
  230       272.48       607.36
  231      272.951       606.72
  232      273.422       606.82
  233      273.892       607.04
  234      274.363          607
  235      274.834        606.7
  236      275.305       606.34
  237      275.775       606.08
  238      276.246       606.16
  239      276.716        606.2
  240      277.186       606.68
  241      277.657       607.86
  242      278.127       609.22
  243      278.597       610.04
  244      279.067       610.28
  245      279.537        609.9
  246      280.007       609.22
  247      280.477        608.2
  248      280.947        607.2
  249      281.417       606.76
  250      281.886       606.68
  251      282.356       606.56
  252      282.825       606.64
  253      283.295       606.92
  254      283.764       607.08
  255      284.234       607.24
  256      284.703       607.36
  257      285.172       606.84
  258      285.641       605.56
  259       286.11       604.48
  260      286.579       604.12
  261      287.048        603.9
  262      287.517       604.38
  263      287.986       605.46
  264      288.454       606.44
  265      288.923        606.8
  266      289.392       606.96
  267       289.86       606.82
  268      290.329       606.88
  269      290.797        606.9
  270      291.265        606.6
  271      291.734       606.42
  272      292.202       606.56
  273       292.67        606.9
  274      293.138       607.76
  275      293.606        609.2
  276      294.074       610.04
  277      294.541          611
  278      295.009       611.44
  279      295.477       610.74
  280      295.944       609.82
  281      296.412       609.34
  282      296.879       608.08
  283      297.347       606.82
  284      297.814       606.22
  285      298.281       605.56
  286      298.749       604.98
  287      299.216          605
  288      299.683        605.2
  289       300.15       605.46
  290      300.616        605.8
  291      301.083       606.24
  292       301.55       607.04
  293      302.017       607.84
  294      302.483       608.12
  295       302.95       608.24
  296      303.416       608.28
  297      303.883       607.56
  298      304.349       606.74
  299      304.815        606.5
  300      305.281        606.7
  301      305.748       606.82
  302      306.214       606.72
  303       306.68       606.86
  304      307.146       607.04
  305      307.611       606.92
  306      308.077       607.36
  307      308.543       607.74
  308      309.008       607.64
  309      309.474       607.56
  310      309.939       607.72
  311      310.405       607.34
  312       310.87       606.98
  313      311.335       606.96
  314        311.8       607.36
  315      312.266       607.64
  316      312.731        607.7
  317      313.196       607.98
  318       313.66        607.8
  319      314.125       606.92
  320       314.59       606.32
  321      315.055       606.24
  322      315.519       606.28
  323      315.984       607.08
  324      316.448       608.32
  325      316.913       609.12
  326      317.377        609.7
  327      317.841       610.48
  328      318.305       610.36
  329      318.769       609.38
  330      319.233        608.5
  331      319.697       608.12
  332      320.161       607.66
  333      320.625        607.4
  334      321.089        607.3
  335      321.552       607.58
  336      322.016       607.74
  337      322.479       607.64
  338      322.943       608.12
  339      323.406       609.28
  340      323.869       609.74
  341      324.333       609.48
  342      324.796       609.48
  343      325.259       609.34
  344      325.722       608.84
  345      326.185       608.98
  346      326.647       609.18
  347       327.11       608.94
  348      327.573       608.74
  349      328.035        608.8
  350      328.498        608.8
  351       328.96       608.98
  352      329.423       609.22
  353      329.885       609.24
  354      330.347        608.9
  355       330.81       608.54
  356      331.272       608.42
  357      331.734        608.1
  358      332.196        607.8
  359      332.657       607.78
  360      333.119       607.58
  361      333.581       607.26
  362      334.043       607.42
  363      334.504       608.08
  364      334.966       608.46
  365      335.427       608.32
  366      335.888       608.14
  367       336.35       608.44
  368      336.811        608.5
  369      337.272       608.38
  370      337.733       608.24
  371      338.194       608.14
  372      338.655       607.86
  373      339.115       607.72
  374      339.576       608.54
  375      340.037       609.82
  376      340.497       610.08
  377      340.958       609.76
  378      341.418       609.62
  379      341.879       609.24
  380      342.339        609.6
  381      342.799       611.04
  382      343.259       611.92
  383      343.719       611.74
  384      344.179          611
  385      344.639       609.68
  386      345.099       608.14
  387      345.559       607.38
  388      346.018       607.14
  389      346.478        607.2
  390      346.937        607.2
  391      347.397        607.4
  392      347.856          608
  393      348.315       608.92
  394      348.774       609.72
  395      349.234       610.24
  396      349.693        610.4
  397      350.152       610.16
  398       350.61        609.9
  399      351.069       609.52
  400      351.528       609.32
  401      351.987       609.66
  402      352.445       610.06
  403      352.904       610.66
  404      353.362       611.56
  405       353.82       612.36
  406      354.279       612.62
  407      354.737       612.48
  408      355.195        611.4
  409      355.653       610.04
  410      356.111        608.8
  411      356.569       607.64
  412      357.027       606.74
  413      357.484       606.34
  414      357.942       605.96
  415      358.399       605.72
  416      358.857       605.92
  417      359.314       606.36
  418      359.772       607.28
  419      360.229        608.5
  420      360.686       608.96
  421      361.143       608.94
  422        361.6       609.24
  423      362.057       609.14
  424      362.514       608.64
  425      362.971       608.46
  426      363.427       608.52
  427      363.884       608.08
  428       364.34       607.46
  429      364.797       606.86
  430      365.253       606.88
  431      365.709       607.28
  432      366.166       607.72
  433      366.622          608
  434      367.078       608.04
  435      367.534       608.28
  436       367.99       608.46
  437      368.445       608.52
  438      368.901       608.92
  439      369.357       609.58
  440      369.812       609.72
  441      370.268        609.4
  442      370.723       609.28
  443      371.179        609.3
  444      371.634       609.38
  445      372.089       609.12
  446      372.544       609.06
  447      372.999       609.04
  448      373.454       608.94
  449      373.909        609.2
  450      374.364       610.04
  451      374.818       610.54
  452      375.273        610.4
  453      375.727        609.8
  454      376.182        608.7
  455      376.636       607.98
  456       377.09       607.76
  457      377.545       608.04
  458      377.999       609.04
  459      378.453       609.44
  460      378.907       608.52
  461      379.361       607.14
  462      379.814       606.06
  463      380.268       604.94
  464      380.722       604.82
  465      381.175       605.56
  466      381.629       606.38
  467      382.082        607.1
  468      382.535       607.66
  469      382.989       608.16
  470      383.442        608.5
  471      383.895       608.96
  472      384.348        608.8
  473      384.801        607.9
  474      385.253       606.72
  475      385.706        605.7
  476      386.159       605.04
  477      386.611       605.18
  478      387.064       605.94
  479      387.516       606.48
  480      387.968       606.68
  481      388.421       606.52
  482      388.873       605.96
  483      389.325       605.42
  484      389.777       605.52
  485      390.229       606.12
  486      390.681       606.74
  487      391.132        607.5
  488      391.584       607.98
  489      392.035       607.88
  490      392.487       607.54
  491      392.938       607.52
  492       393.39       607.62
  493      393.841       608.44
  494      394.292       609.86
  495      394.743       610.68
  496      395.194       610.58
  497      395.645       610.28
  498      396.096       608.96
  499      396.546       606.76
  500      396.997        604.9
  501      397.448       604.44
  502      397.898        604.3
  503      398.349       604.58
  504      398.799        605.6
  505      399.249        607.2
  506      399.699        608.2
  507      400.149       608.84
  508      400.599       609.32
  509      401.049       609.84
  510      401.499       610.18
  511      401.949        609.8
  512      402.398       609.02
  513      402.848       608.68
  514      403.297       608.14
  515      403.747       607.66
  516      404.196        607.5
  517      404.645       607.52
  518      405.094       607.66
  519      405.543        607.7
  520      405.992       606.98
  521      406.441       606.36
  522       406.89       605.94
  523      407.339       605.28
  524      407.787        605.1
  525      408.236       605.54
  526      408.684       606.14
  527      409.132        607.1
  528      409.581       607.68
  529      410.029        607.4
  530      410.477       606.82
  531      410.925       606.16
  532      411.373       605.16
  533      411.821       605.62
  534      412.269       607.68
  535      412.716       609.76
  536      413.164       610.82
  537      413.611       611.42
  538      414.059       610.58
  539      414.506       608.06
  540      414.953        605.5
  541        415.4        604.7
  542      415.847       604.64
  543      416.294       604.48
  544      416.741          605
  545      417.188       606.02
  546      417.635       606.18
  547      418.081       605.94
  548      418.528       606.38
  549      418.974       606.74
  550      419.421       606.62
  551      419.867       606.76
  552      420.313        607.2
  553      420.759       606.92
  554      421.205       606.22
  555      421.651       605.52
  556      422.097       604.76
  557      422.543        604.1
  558      422.989        603.8
  559      423.434       604.24
  560       423.88       605.38
  561      424.325       606.46
  562       424.77       607.32
  563      425.216       607.84
  564      425.661       607.84
  565      426.106       607.08
  566      426.551       606.24
  567      426.996       605.48
  568       427.44       605.22
  569      427.885       605.58
  570       428.33       606.36
  571      428.774        607.4
  572      429.219        608.4
  573      429.663       608.82
  574      430.107        608.5
  575      430.551       607.44
  576      430.996       606.22
  577       431.44        605.6
  578      431.883        605.8
  579      432.327       606.42
  580      432.771       607.42
  581      433.215        608.4
  582      433.658       608.74
  583      434.102       608.88
  584      434.545       608.72
  585      434.988       608.58
  586      435.431        608.7
  587      435.875       608.64
  588      436.318       607.66
  589      436.761        606.5
  590      437.203       606.14
  591      437.646       605.74
  592      438.089       605.58
  593      438.531       606.38
  594      438.974       607.28
  595      439.416       607.38
  596      439.859       607.26
  597      440.301       607.36
  598      440.743       607.32
  599      441.185        607.3
  600      441.627       607.16
  601      442.069       607.18
  602       442.51       607.38
  603      442.952       607.52
  604      443.394       607.84
  605      443.835       608.58
  606      444.277       608.82
  607      444.718       608.34
  608      445.159       608.12
  609        445.6       607.84
  610      446.041        607.4
