scansci Spectrometer Data File
--- Measurement Setting ---
Type: Sample Spectrum
Date: Mon Oct 16 16:22:09 2023
User: (Reserved by scansci)
Serial: (Reserved by scansci)
Channel: No. 11
Integration Time: 1
Average: 10
Boxcar: 2
Electrical Dark: No-corrected
Time Normalize: (Reserved by scansci)
Dual-beam: (Reserved by scansci)
Reference Ch: (Reserved by scansci)
--- Measurement Data ---
Pixel   Wavelength   Intensity
    0        162.5      620.767
    1      162.985      620.175
    2      163.469        619.7
    3      163.954        619.8
    4      164.439       619.12
    5      164.923        618.1
    6      165.408        617.9
    7      165.892       618.44
    8      166.377       618.82
    9      166.861       619.12
   10      167.345       619.38
   11       167.83        619.5
   12      168.314       618.66
   13      168.798        617.5
   14      169.282       616.88
   15      169.766       617.22
   16       170.25       617.16
   17      170.734       617.24
   18      171.218       617.52
   19      171.702       617.64
   20      172.185       617.08
   21      172.669       616.94
   22      173.153        616.8
   23      173.636       616.56
   24       174.12       616.18
   25      174.603       615.92
   26      175.087       615.86
   27       175.57       615.54
   28      176.053       614.68
   29      176.537       613.64
   30       177.02        612.7
   31      177.503        612.1
   32      177.986       612.26
   33      178.469       613.34
   34      178.952       615.18
   35      179.435       617.04
   36      179.918       618.38
   37      180.401       619.14
   38      180.884        619.3
   39      181.366       618.94
   40      181.849       618.42
   41      182.332       617.54
   42      182.814       616.74
   43      183.297       616.62
   44      183.779       616.84
   45      184.262        616.8
   46      184.744       616.76
   47      185.226        616.8
   48      185.708       616.52
   49      186.191       615.98
   50      186.673        615.6
   51      187.155       615.76
   52      187.637       615.82
   53      188.119        616.2
   54        188.6       616.94
   55      189.082        617.6
   56      189.564       617.58
   57      190.046        617.1
   58      190.527       616.34
   59      191.009       615.52
   60      191.491        614.9
   61      191.972       614.88
   62      192.454       615.96
   63      192.935       617.18
   64      193.416       617.54
   65      193.897       617.54
   66      194.379       617.64
   67       194.86       617.82
   68      195.341       617.66
   69      195.822       617.74
   70      196.303       617.84
   71      196.784       617.74
   72      197.265        617.2
   73      197.746       616.72
   74      198.226       616.74
   75      198.707       617.04
   76      199.188       617.32
   77      199.668        617.8
   78      200.149       618.52
   79      200.629       619.08
   80       201.11       619.62
   81       201.59       619.96
   82       202.07       619.88
   83       202.55       619.76
   84      203.031       619.62
   85      203.511       619.18
   86      203.991       619.12
   87      204.471       619.42
   88      204.951        619.1
   89      205.431        617.9
   90       205.91       617.16
   91       206.39       616.58
   92       206.87       615.64
   93      207.349        615.2
   94      207.829       615.66
   95      208.309        616.4
   96      208.788        617.1
   97      209.267       617.92
   98      209.747       618.66
   99      210.226       619.38
  100      210.705        619.4
  101      211.185        618.9
  102      211.664       618.26
  103      212.143        617.8
  104      212.622       617.28
  105      213.101       616.64
  106      213.579       616.12
  107      214.058        616.1
  108      214.537       616.42
  109      215.016       616.76
  110      215.494        617.3
  111      215.973        617.5
  112      216.452        616.8
  113       216.93       615.86
  114      217.408        615.2
  115      217.887       614.84
  116      218.365          615
  117      218.843       615.96
  118      219.321       616.82
  119      219.799       617.06
  120      220.278       616.94
  121      220.755       616.62
  122      221.233        616.2
  123      221.711       615.86
  124      222.189       615.78
  125      222.667       616.02
  126      223.144       616.66
  127      223.622       617.68
  128        224.1       618.56
  129      224.577        619.3
  130      225.055       620.06
  131      225.532          621
  132      226.009       621.32
  133      226.486       620.68
  134      226.964       620.06
  135      227.441       619.78
  136      227.918       619.18
  137      228.395       618.14
  138      228.872       617.78
  139      229.349        617.4
  140      229.826       616.56
  141      230.302        615.3
  142      230.779        614.5
  143      231.256       614.26
  144      231.732        613.7
  145      232.209        612.8
  146      232.685       612.24
  147      233.162       612.04
  148      233.638       611.94
  149      234.114       612.76
  150       234.59       614.34
  151      235.066       615.98
  152      235.543       617.38
  153      236.019       618.32
  154      236.495       618.42
  155       236.97       618.28
  156      237.446       618.18
  157      237.922       618.02
  158      238.398        617.7
  159      238.873       618.04
  160      239.349       618.76
  161      239.824        619.4
  162        240.3        619.7
  163      240.775       620.06
  164      241.251       620.06
  165      241.726       619.54
  166      242.201       618.36
  167      242.676        617.2
  168      243.151        616.6
  169      243.626        616.1
  170      244.101       615.12
  171      244.576       614.58
  172      245.051       614.52
  173      245.526       614.54
  174          246       615.14
  175      246.475       615.94
  176       246.95       616.62
  177      247.424       617.12
  178      247.899        616.9
  179      248.373       615.98
  180      248.847       615.56
  181      249.321       615.76
  182      249.796       616.02
  183       250.27       616.32
  184      250.744        616.3
  185      251.218       616.24
  186      251.692       616.26
  187      252.166       615.68
  188      252.639       614.84
  189      253.113       614.22
  190      253.587       613.92
  191       254.06       613.78
  192      254.534       614.08
  193      255.007       614.58
  194      255.481       615.38
  195      255.954        615.8
  196      256.427       615.94
  197      256.901       616.36
  198      257.374       616.94
  199      257.847       617.18
  200       258.32       616.92
  201      258.793       616.22
  202      259.266       615.42
  203      259.739        614.9
  204      260.211       614.68
  205      260.684        614.6
  206      261.157       614.74
  207      261.629       614.86
  208      262.102       614.64
  209      262.574       614.76
  210      263.046        615.2
  211      263.519       615.18
  212      263.991       615.16
  213      264.463       615.36
  214      264.935       615.12
  215      265.407        615.1
  216      265.879       615.08
  217      266.351       615.04
  218      266.823       615.22
  219      267.295       615.34
  220      267.766       615.02
  221      268.238        615.2
  222       268.71       615.36
  223      269.181        615.4
  224      269.653       615.24
  225      270.124       615.16
  226      270.595       615.02
  227      271.066        614.7
  228      271.538        614.7
  229      272.009       615.52
  230       272.48       616.58
  231      272.951       617.36
  232      273.422       618.14
  233      273.892       618.08
  234      274.363       617.64
  235      274.834       617.06
  236      275.305       616.54
  237      275.775        616.4
  238      276.246       616.64
  239      276.716       616.58
  240      277.186       616.22
  241      277.657       615.92
  242      278.127        615.7
  243      278.597       615.94
  244      279.067       616.38
  245      279.537       616.68
  246      280.007       616.28
  247      280.477        615.6
  248      280.947       614.68
  249      281.417        613.8
  250      281.886       613.46
  251      282.356        614.2
  252      282.825        615.3
  253      283.295        616.4
  254      283.764       617.54
  255      284.234       618.44
  256      284.703       618.94
  257      285.172       618.72
  258      285.641       618.02
  259       286.11          617
  260      286.579       615.78
  261      287.048       614.76
  262      287.517       614.08
  263      287.986       613.48
  264      288.454       613.16
  265      288.923       613.24
  266      289.392          613
  267       289.86       612.84
  268      290.329        612.8
  269      290.797       612.76
  270      291.265       612.88
  271      291.734       613.54
  272      292.202       614.28
  273       292.67        614.7
  274      293.138       614.76
  275      293.606       614.52
  276      294.074       613.78
  277      294.541       613.02
  278      295.009        612.6
  279      295.477        612.4
  280      295.944       612.42
  281      296.412        612.7
  282      296.879       613.02
  283      297.347       613.32
  284      297.814       613.36
  285      298.281        612.8
  286      298.749       612.22
  287      299.216       612.04
  288      299.683       612.58
  289       300.15       613.66
  290      300.616       614.78
  291      301.083       615.82
  292       301.55       616.66
  293      302.017       617.16
  294      302.483       617.16
  295       302.95       617.18
  296      303.416       617.42
  297      303.883       617.24
  298      304.349       616.48
  299      304.815       616.48
  300      305.281       617.16
  301      305.748        617.4
  302      306.214       617.16
  303       306.68       616.78
  304      307.146          616
  305      307.611       615.46
  306      308.077       615.24
  307      308.543       615.34
  308      309.008       615.58
  309      309.474       615.64
  310      309.939       615.08
  311      310.405       614.72
  312       310.87       614.98
  313      311.335        615.2
  314        311.8       615.46
  315      312.266       616.24
  316      312.731        616.7
  317      313.196        616.6
  318       313.66       616.38
  319      314.125          616
  320       314.59       615.46
  321      315.055       614.74
  322      315.519       614.22
  323      315.984       614.68
  324      316.448       615.72
  325      316.913       616.86
  326      317.377       618.08
  327      317.841       619.02
  328      318.305       619.28
  329      318.769       619.48
  330      319.233       619.48
  331      319.697        619.5
  332      320.161       619.44
  333      320.625       618.62
  334      321.089       617.66
  335      321.552       617.02
  336      322.016       616.68
  337      322.479       616.58
  338      322.943       617.14
  339      323.406       617.64
  340      323.869       617.48
  341      324.333       616.82
  342      324.796       616.12
  343      325.259        615.3
  344      325.722       614.64
  345      326.185       614.94
  346      326.647       615.72
  347       327.11       616.12
  348      327.573       616.56
  349      328.035        616.6
  350      328.498       615.46
  351       328.96       614.26
  352      329.423       613.86
  353      329.885        613.9
  354      330.347       614.52
  355       330.81       615.54
  356      331.272       616.18
  357      331.734       616.58
  358      332.196       616.82
  359      332.657       616.38
  360      333.119       615.96
  361      333.581       615.66
  362      334.043        615.3
  363      334.504       614.88
  364      334.966       614.62
  365      335.427        614.4
  366      335.888       614.52
  367       336.35       615.12
  368      336.811       615.96
  369      337.272       616.86
  370      337.733       617.14
  371      338.194       616.74
  372      338.655        615.8
  373      339.115        614.6
  374      339.576        613.6
  375      340.037        613.2
  376      340.497       613.42
  377      340.958       613.96
  378      341.418        614.6
  379      341.879       615.24
  380      342.339       616.16
  381      342.799        617.1
  382      343.259       617.94
  383      343.719       618.78
  384      344.179        619.2
  385      344.639       619.16
  386      345.099          619
  387      345.559       618.34
  388      346.018       617.18
  389      346.478       616.28
  390      346.937       615.54
  391      347.397       615.18
  392      347.856        615.2
  393      348.315        615.4
  394      348.774       615.36
  395      349.234        615.1
  396      349.693       614.86
  397      350.152       614.98
  398       350.61       615.14
  399      351.069        615.3
  400      351.528       615.24
  401      351.987       614.78
  402      352.445        614.7
  403      352.904       614.92
  404      353.362       615.16
  405       353.82       615.64
  406      354.279       616.48
  407      354.737        617.2
  408      355.195       617.84
  409      355.653       618.54
  410      356.111       619.38
  411      356.569       619.66
  412      357.027       619.22
  413      357.484       618.76
  414      357.942       617.94
  415      358.399       616.84
  416      358.857       616.06
  417      359.314       615.54
  418      359.772       615.24
  419      360.229       615.92
  420      360.686          617
  421      361.143       617.48
  422        361.6       617.28
  423      362.057       616.66
  424      362.514       615.44
  425      362.971       614.38
  426      363.427       613.92
  427      363.884       613.82
  428       364.34          614
  429      364.797       614.38
  430      365.253       614.64
  431      365.709       615.16
  432      366.166       616.38
  433      366.622       617.38
  434      367.078       617.52
  435      367.534       617.58
  436       367.99       617.46
  437      368.445       616.62
  438      368.901       616.04
  439      369.357       616.16
  440      369.812       616.18
  441      370.268        616.3
  442      370.723       616.54
  443      371.179        616.6
  444      371.634       616.34
  445      372.089        616.4
  446      372.544       616.16
  447      372.999       615.04
  448      373.454       613.98
  449      373.909       613.88
  450      374.364       613.62
  451      374.818        613.3
  452      375.273        614.1
  453      375.727       614.84
  454      376.182       614.48
  455      376.636       614.18
  456       377.09       613.98
  457      377.545       613.44
  458      377.999       612.98
  459      378.453       613.04
  460      378.907        613.2
  461      379.361       613.36
  462      379.814       613.48
  463      380.268        614.3
  464      380.722       615.72
  465      381.175       616.22
  466      381.629       615.86
  467      382.082        615.5
  468      382.535       614.78
  469      382.989       613.94
  470      383.442       613.66
  471      383.895       614.02
  472      384.348       614.96
  473      384.801        615.4
  474      385.253       615.14
  475      385.706       615.38
  476      386.159       615.92
  477      386.611       615.82
  478      387.064       615.76
  479      387.516       615.56
  480      387.968        614.5
  481      388.421       613.32
  482      388.873       612.46
  483      389.325       612.06
  484      389.777       612.24
  485      390.229       612.96
  486      390.681       613.86
  487      391.132       614.86
  488      391.584       615.72
  489      392.035        615.9
  490      392.487       615.54
  491      392.938       615.32
  492       393.39       615.26
  493      393.841       615.24
  494      394.292       615.74
  495      394.743       616.46
  496      395.194        616.7
  497      395.645        616.8
  498      396.096       616.72
  499      396.546       616.36
  500      396.997       615.98
  501      397.448       615.84
  502      397.898       615.24
  503      398.349       614.92
  504      398.799       615.24
  505      399.249       615.58
  506      399.699       615.94
  507      400.149        616.6
  508      400.599       616.74
  509      401.049       616.28
  510      401.499       616.16
  511      401.949       616.18
  512      402.398       616.36
  513      402.848       616.44
  514      403.297       615.94
  515      403.747       615.18
  516      404.196       614.28
  517      404.645       613.38
  518      405.094        612.7
  519      405.543       612.72
  520      405.992          613
  521      406.441       613.44
  522       406.89       613.98
  523      407.339        614.8
  524      407.787       615.58
  525      408.236       616.18
  526      408.684       616.76
  527      409.132       616.88
  528      409.581       616.68
  529      410.029       616.66
  530      410.477       616.58
  531      410.925       616.68
  532      411.373       617.06
  533      411.821       617.72
  534      412.269        618.6
  535      412.716       619.08
  536      413.164       619.44
  537      413.611       619.86
  538      414.059       619.64
  539      414.506       618.64
  540      414.953       618.06
  541        415.4       617.36
  542      415.847        616.2
  543      416.294       615.48
  544      416.741       615.38
  545      417.188       615.36
  546      417.635       615.12
  547      418.081       615.32
  548      418.528        615.7
  549      418.974       616.08
  550      419.421       616.46
  551      419.867       616.72
  552      420.313       616.56
  553      420.759        615.9
  554      421.205       614.94
  555      421.651        614.2
  556      422.097       613.96
  557      422.543       614.32
  558      422.989       615.24
  559      423.434        616.3
  560       423.88       616.88
  561      424.325        617.1
  562       424.77        617.2
  563      425.216       617.48
  564      425.661       617.62
  565      426.106          618
  566      426.551       618.36
  567      426.996       618.42
  568       427.44       618.58
  569      427.885       619.24
  570       428.33        619.6
  571      428.774       619.84
  572      429.219       620.14
  573      429.663        619.7
  574      430.107          619
  575      430.551       618.62
  576      430.996       618.12
  577       431.44        617.5
  578      431.883       617.32
  579      432.327       617.42
  580      432.771        617.5
  581      433.215       617.96
  582      433.658       618.56
  583      434.102       619.18
  584      434.545       619.04
  585      434.988       618.54
  586      435.431       617.76
  587      435.875       617.02
  588      436.318       615.66
  589      436.761       614.66
  590      437.203       614.68
  591      437.646       614.76
  592      438.089       614.28
  593      438.531       614.26
  594      438.974       614.34
  595      439.416        613.7
  596      439.859       613.12
  597      440.301        613.6
  598      440.743        613.8
  599      441.185       613.64
  600      441.627       613.92
  601      442.069        614.8
  602       442.51       615.42
  603      442.952        616.6
  604      443.394          618
  605      443.835       618.66
  606      444.277       618.66
  607      444.718       618.58
  608      445.159       618.46
  609        445.6        618.4
  610      446.041       618.76
