scansci Spectrometer Data File
--- Measurement Setting ---
Type: Sample Spectrum
Date: Mon Oct 16 16:21:37 2023
User: (Reserved by scansci)
Serial: (Reserved by scansci)
Channel: No. 11
Integration Time: 1
Average: 10
Boxcar: 2
Electrical Dark: No-corrected
Time Normalize: (Reserved by scansci)
Dual-beam: (Reserved by scansci)
Reference Ch: (Reserved by scansci)
--- Measurement Data ---
Pixel   Wavelength   Intensity
    0        162.5      634.333
    1      162.985        635.4
    2      163.469        636.2
    3      163.954       637.38
    4      164.439       637.84
    5      164.923       637.64
    6      165.408        636.9
    7      165.892       636.48
    8      166.377       636.64
    9      166.861       637.14
   10      167.345       638.14
   11       167.83       638.56
   12      168.314        638.2
   13      168.798        637.7
   14      169.282        637.4
   15      169.766       636.74
   16       170.25       636.64
   17      170.734       636.76
   18      171.218       636.46
   19      171.702       636.08
   20      172.185        635.6
   21      172.669       635.58
   22      173.153       635.92
   23      173.636        636.4
   24       174.12        637.2
   25      174.603       639.12
   26      175.087       640.74
   27       175.57       641.92
   28      176.053       643.36
   29      176.537       644.52
   30       177.02       644.92
   31      177.503          646
   32      177.986       647.66
   33      178.469        649.7
   34      178.952       652.16
   35      179.435        654.9
   36      179.918       657.56
   37      180.401       660.38
   38      180.884       662.38
   39      181.366       663.48
   40      181.849       664.24
   41      182.332       664.64
   42      182.814       664.34
   43      183.297       663.68
   44      183.779        662.9
   45      184.262        662.2
   46      184.744       661.44
   47      185.226       660.58
   48      185.708       660.08
   49      186.191          660
   50      186.673        659.7
   51      187.155       659.08
   52      187.637       658.72
   53      188.119       658.76
   54        188.6        658.7
   55      189.082        658.4
   56      189.564       658.34
   57      190.046       659.26
   58      190.527       660.14
   59      191.009       660.68
   60      191.491        661.4
   61      191.972        661.2
   62      192.454       660.04
   63      192.935       659.68
   64      193.416        659.7
   65      193.897       659.38
   66      194.379       659.88
   67       194.86       660.46
   68      195.341       659.84
   69      195.822       659.08
   70      196.303        658.9
   71      196.784       658.58
   72      197.265       658.64
   73      197.746       659.52
   74      198.226       660.76
   75      198.707       661.02
   76      199.188        660.6
   77      199.668       659.58
   78      200.149       658.24
   79      200.629       656.92
   80       201.11       656.68
   81       201.59       657.88
   82       202.07       659.52
   83       202.55       660.64
   84      203.031       660.96
   85      203.511       660.72
   86      203.991       659.52
   87      204.471       657.44
   88      204.951       655.42
   89      205.431       654.06
   90       205.91        653.2
   91       206.39       652.78
   92       206.87       652.82
   93      207.349       652.72
   94      207.829       652.62
   95      208.309       653.34
   96      208.788       654.72
   97      209.267        656.3
   98      209.747       657.92
   99      210.226       659.04
  100      210.705       659.04
  101      211.185       657.74
  102      211.664        656.2
  103      212.143       655.04
  104      212.622       654.22
  105      213.101       654.06
  106      213.579       654.54
  107      214.058       655.24
  108      214.537       656.46
  109      215.016       658.06
  110      215.494       659.04
  111      215.973       659.22
  112      216.452       659.04
  113       216.93       658.02
  114      217.408       656.54
  115      217.887       655.36
  116      218.365       654.94
  117      218.843       654.78
  118      219.321       654.94
  119      219.799       655.26
  120      220.278       655.46
  121      220.755       655.58
  122      221.233       655.96
  123      221.711       656.32
  124      222.189       656.36
  125      222.667       655.96
  126      223.144       655.34
  127      223.622       654.62
  128        224.1       654.26
  129      224.577       654.36
  130      225.055       654.82
  131      225.532       655.22
  132      226.009       655.36
  133      226.486       654.94
  134      226.964       654.02
  135      227.441       652.98
  136      227.918        652.1
  137      228.395        651.4
  138      228.872       651.28
  139      229.349       651.74
  140      229.826        652.1
  141      230.302       653.08
  142      230.779        654.2
  143      231.256       654.86
  144      231.732       655.16
  145      232.209       655.72
  146      232.685       656.02
  147      233.162       656.14
  148      233.638       655.82
  149      234.114       655.16
  150       234.59       654.64
  151      235.066          654
  152      235.543        653.3
  153      236.019       652.78
  154      236.495       652.32
  155       236.97       651.34
  156      237.446       650.44
  157      237.922       650.12
  158      238.398       650.66
  159      238.873       651.62
  160      239.349       652.38
  161      239.824        652.9
  162        240.3       652.82
  163      240.775       651.92
  164      241.251       650.96
  165      241.726       650.34
  166      242.201       650.06
  167      242.676       650.18
  168      243.151        650.7
  169      243.626       651.48
  170      244.101       652.52
  171      244.576       652.66
  172      245.051       652.12
  173      245.526       651.26
  174          246       649.76
  175      246.475          649
  176       246.95        649.4
  177      247.424       649.68
  178      247.899       649.92
  179      248.373       650.94
  180      248.847       651.66
  181      249.321       651.98
  182      249.796        652.6
  183       250.27       653.08
  184      250.744       653.22
  185      251.218        653.1
  186      251.692       653.58
  187      252.166       654.52
  188      252.639       655.38
  189      253.113       656.28
  190      253.587        656.9
  191       254.06       656.34
  192      254.534        655.2
  193      255.007       654.52
  194      255.481       653.92
  195      255.954        653.3
  196      256.427       653.24
  197      256.901       654.14
  198      257.374       655.14
  199      257.847       655.88
  200       258.32       656.38
  201      258.793       656.08
  202      259.266       654.28
  203      259.739       652.24
  204      260.211       650.48
  205      260.684       649.28
  206      261.157       649.54
  207      261.629       650.68
  208      262.102        651.5
  209      262.574       651.86
  210      263.046       651.78
  211      263.519       650.58
  212      263.991        649.1
  213      264.463       648.86
  214      264.935        649.1
  215      265.407        649.1
  216      265.879       649.18
  217      266.351       649.44
  218      266.823       649.16
  219      267.295       648.96
  220      267.766       648.72
  221      268.238        648.6
  222       268.71       649.08
  223      269.181        649.8
  224      269.653       650.42
  225      270.124       651.48
  226      270.595       652.66
  227      271.066        653.1
  228      271.538       652.66
  229      272.009       651.78
  230       272.48       650.82
  231      272.951       649.92
  232      273.422       649.48
  233      273.892       649.64
  234      274.363       650.02
  235      274.834        650.4
  236      275.305       651.08
  237      275.775       651.56
  238      276.246       651.74
  239      276.716       651.82
  240      277.186       651.78
  241      277.657       651.24
  242      278.127       650.72
  243      278.597       650.28
  244      279.067        650.1
  245      279.537       649.72
  246      280.007       649.42
  247      280.477       649.54
  248      280.947       649.76
  249      281.417       650.06
  250      281.886       650.64
  251      282.356       650.82
  252      282.825       650.06
  253      283.295       649.12
  254      283.764       648.18
  255      284.234       647.22
  256      284.703        646.6
  257      285.172       646.58
  258      285.641       646.88
  259       286.11       646.98
  260      286.579       647.38
  261      287.048       648.26
  262      287.517       649.12
  263      287.986       650.08
  264      288.454       650.88
  265      288.923       650.94
  266      289.392       650.46
  267       289.86        649.6
  268      290.329       648.48
  269      290.797        647.6
  270      291.265        647.2
  271      291.734        647.2
  272      292.202       647.52
  273       292.67        647.5
  274      293.138       647.36
  275      293.606       647.48
  276      294.074       647.88
  277      294.541       648.22
  278      295.009       648.38
  279      295.477       648.94
  280      295.944       649.56
  281      296.412       649.72
  282      296.879       650.16
  283      297.347       650.74
  284      297.814       650.66
  285      298.281       650.16
  286      298.749        649.4
  287      299.216        647.9
  288      299.683       646.56
  289       300.15        646.1
  290      300.616       646.06
  291      301.083       646.14
  292       301.55       646.36
  293      302.017       646.62
  294      302.483       646.56
  295       302.95       646.28
  296      303.416          646
  297      303.883       645.86
  298      304.349       645.88
  299      304.815       645.62
  300      305.281        645.4
  301      305.748       645.08
  302      306.214       644.52
  303       306.68          644
  304      307.146       643.62
  305      307.611       643.18
  306      308.077       643.18
  307      308.543       643.92
  308      309.008       644.48
  309      309.474       644.96
  310      309.939       645.18
  311      310.405       644.48
  312       310.87       643.66
  313      311.335        643.5
  314        311.8       643.64
  315      312.266       644.36
  316      312.731       645.62
  317      313.196       646.54
  318       313.66       646.44
  319      314.125       645.52
  320       314.59       643.88
  321      315.055       642.66
  322      315.519        642.6
  323      315.984       643.02
  324      316.448       643.54
  325      316.913       644.34
  326      317.377       644.82
  327      317.841       643.86
  328      318.305       642.98
  329      318.769       642.68
  330      319.233       643.18
  331      319.697       644.18
  332      320.161       645.16
  333      320.625       645.46
  334      321.089       645.48
  335      321.552       644.92
  336      322.016       643.78
  337      322.479       643.02
  338      322.943       642.72
  339      323.406       642.62
  340      323.869        642.5
  341      324.333       642.14
  342      324.796        642.5
  343      325.259       642.48
  344      325.722       641.44
  345      326.185        640.5
  346      326.647       640.48
  347       327.11       640.06
  348      327.573        640.4
  349      328.035       641.68
  350      328.498       642.54
  351       328.96       642.96
  352      329.423       643.22
  353      329.885       643.54
  354      330.347       644.18
  355       330.81       645.34
  356      331.272        646.6
  357      331.734       647.06
  358      332.196       646.42
  359      332.657        645.3
  360      333.119       644.52
  361      333.581       643.54
  362      334.043       643.02
  363      334.504       643.92
  364      334.966       644.76
  365      335.427       644.16
  366      335.888       643.78
  367       336.35       643.42
  368      336.811       642.42
  369      337.272       641.68
  370      337.733        641.3
  371      338.194        641.2
  372      338.655       641.48
  373      339.115       641.62
  374      339.576       642.16
  375      340.037       643.08
  376      340.497       642.78
  377      340.958       641.96
  378      341.418       641.36
  379      341.879       640.28
  380      342.339        639.5
  381      342.799       639.86
  382      343.259        640.3
  383      343.719       641.18
  384      344.179       642.06
  385      344.639       642.32
  386      345.099          642
  387      345.559       642.02
  388      346.018       641.52
  389      346.478       640.92
  390      346.937       641.12
  391      347.397        641.7
  392      347.856       641.76
  393      348.315       641.76
  394      348.774       641.66
  395      349.234       641.24
  396      349.693       640.54
  397      350.152       640.28
  398       350.61       640.36
  399      351.069       640.42
  400      351.528       640.56
  401      351.987       640.34
  402      352.445       639.54
  403      352.904       638.28
  404      353.362       637.58
  405       353.82       637.02
  406      354.279       636.86
  407      354.737        637.5
  408      355.195       638.38
  409      355.653       638.78
  410      356.111       638.82
  411      356.569       639.08
  412      357.027       639.16
  413      357.484       639.04
  414      357.942       639.06
  415      358.399       639.06
  416      358.857        639.1
  417      359.314       638.92
  418      359.772       638.82
  419      360.229       638.88
  420      360.686       639.52
  421      361.143       640.28
  422        361.6       640.94
  423      362.057        641.9
  424      362.514       642.92
  425      362.971       643.02
  426      363.427       642.78
  427      363.884       642.68
  428       364.34       641.96
  429      364.797       641.04
  430      365.253       640.58
  431      365.709       640.46
  432      366.166        640.5
  433      366.622       640.28
  434      367.078        639.6
  435      367.534        639.2
  436       367.99       638.92
  437      368.445       638.56
  438      368.901       639.12
  439      369.357        640.2
  440      369.812       640.68
  441      370.268       640.66
  442      370.723        640.8
  443      371.179       640.82
  444      371.634       640.92
  445      372.089        641.3
  446      372.544       641.72
  447      372.999        641.7
  448      373.454       641.56
  449      373.909       641.42
  450      374.364        641.3
  451      374.818       641.44
  452      375.273          642
  453      375.727       642.22
  454      376.182       641.72
  455      376.636       641.12
  456       377.09       640.34
  457      377.545        639.6
  458      377.999       639.42
  459      378.453       639.64
  460      378.907       639.54
  461      379.361       639.36
  462      379.814       638.88
  463      380.268       638.12
  464      380.722       637.56
  465      381.175       637.52
  466      381.629       637.72
  467      382.082       637.84
  468      382.535       637.98
  469      382.989       638.34
  470      383.442       638.98
  471      383.895       639.28
  472      384.348       639.52
  473      384.801       639.84
  474      385.253       640.08
  475      385.706       639.92
  476      386.159       639.96
  477      386.611       640.02
  478      387.064       639.82
  479      387.516       639.82
  480      387.968       639.66
  481      388.421       638.74
  482      388.873       638.36
  483      389.325        638.8
  484      389.777       638.92
  485      390.229       639.14
  486      390.681       639.72
  487      391.132        639.9
  488      391.584        639.9
  489      392.035        639.7
  490      392.487       639.06
  491      392.938       638.66
  492       393.39       638.28
  493      393.841       637.38
  494      394.292       636.58
  495      394.743       636.68
  496      395.194        637.6
  497      395.645          639
  498      396.096       640.54
  499      396.546       641.86
  500      396.997        642.5
  501      397.448       642.08
  502      397.898       641.08
  503      398.349       640.36
  504      398.799       640.28
  505      399.249        640.3
  506      399.699        640.4
  507      400.149        640.5
  508      400.599        640.4
  509      401.049        640.5
  510      401.499        640.9
  511      401.949       641.34
  512      402.398        641.9
  513      402.848       642.24
  514      403.297       642.08
  515      403.747       641.48
  516      404.196       640.96
  517      404.645       641.02
  518      405.094       640.92
  519      405.543       640.54
  520      405.992       640.24
  521      406.441        640.2
  522       406.89       639.64
  523      407.339       639.08
  524      407.787       638.98
  525      408.236       639.22
  526      408.684       639.22
  527      409.132       638.98
  528      409.581       639.08
  529      410.029       639.46
  530      410.477       639.48
  531      410.925       638.96
  532      411.373        639.1
  533      411.821       639.56
  534      412.269       639.64
  535      412.716       639.68
  536      413.164       640.28
  537      413.611       640.68
  538      414.059       640.64
  539      414.506       640.24
  540      414.953       639.98
  541        415.4        639.2
  542      415.847       638.02
  543      416.294       637.34
  544      416.741       636.86
  545      417.188        636.6
  546      417.635        637.1
  547      418.081       637.48
  548      418.528       637.08
  549      418.974       636.76
  550      419.421       636.54
  551      419.867       636.18
  552      420.313       636.52
  553      420.759       637.42
  554      421.205       638.46
  555      421.651       639.14
  556      422.097       639.62
  557      422.543        639.8
  558      422.989       639.96
  559      423.434       639.82
  560       423.88       639.46
  561      424.325       639.64
  562       424.77       640.08
  563      425.216       640.14
  564      425.661       640.32
  565      426.106       640.78
  566      426.551       639.98
  567      426.996        638.6
  568       427.44       637.44
  569      427.885       636.22
  570       428.33       635.54
  571      428.774       636.44
  572      429.219       637.64
  573      429.663       638.54
  574      430.107       639.72
  575      430.551       640.54
  576      430.996       640.06
  577       431.44       638.64
  578      431.883       637.44
  579      432.327       636.02
  580      432.771       633.94
  581      433.215       632.66
  582      433.658       632.74
  583      434.102       633.08
  584      434.545       633.74
  585      434.988       635.24
  586      435.431        636.6
  587      435.875       637.42
  588      436.318       638.26
  589      436.761        639.1
  590      437.203       639.76
  591      437.646       640.74
  592      438.089       641.92
  593      438.531       642.18
  594      438.974       641.34
  595      439.416       640.54
  596      439.859       639.62
  597      440.301       638.64
  598      440.743       638.24
  599      441.185       638.94
  600      441.627       639.92
  601      442.069       640.76
  602       442.51        641.4
  603      442.952       641.74
  604      443.394        642.2
  605      443.835       642.64
  606      444.277        642.9
  607      444.718       643.26
  608      445.159       644.02
  609        445.6       644.48
  610      446.041       644.62
