scansci Spectrometer Data File
--- Measurement Setting ---
Type: Sample Spectrum
Date: Mon Oct 16 16:50:16 2023
User: (Reserved by scansci)
Serial: (Reserved by scansci)
Channel: No. 11
Integration Time: 1
Average: 10
Boxcar: 2
Electrical Dark: No-corrected
Time Normalize: (Reserved by scansci)
Dual-beam: (Reserved by scansci)
Reference Ch: (Reserved by scansci)
--- Measurement Data ---
Pixel   Wavelength   Intensity
    0        344.4      671.133
    1      344.867        671.4
    2      345.334       671.58
    3      345.801        671.8
    4      346.268       672.08
    5      346.735       672.04
    6      347.202       671.64
    7      347.669       670.98
    8      348.135       670.04
    9      348.602       669.32
   10      349.068       668.88
   11      349.535       668.72
   12      350.001        668.9
   13      350.467       669.38
   14      350.933       669.84
   15      351.399        670.3
   16      351.866       670.36
   17      352.331        670.2
   18      352.797        669.7
   19      353.263       669.02
   20      353.729       668.42
   21      354.194       668.32
   22       354.66       668.88
   23      355.126       669.82
   24      355.591       670.62
   25      356.056        671.3
   26      356.522        671.9
   27      356.987       672.08
   28      357.452       671.68
   29      357.917       671.28
   30      358.382       671.14
   31      358.847       670.84
   32      359.312       670.34
   33      359.776        670.8
   34      360.241       671.86
   35      360.706       672.52
   36       361.17          673
   37      361.634       673.48
   38      362.099        672.9
   39      362.563       671.62
   40      363.027        671.1
   41      363.491       670.88
   42      363.955        670.8
   43      364.419       671.28
   44      364.883       671.68
   45      365.347       671.28
   46      365.811       670.26
   47      366.274       668.98
   48      366.738       668.28
   49      367.201       668.44
   50      367.665       669.28
   51      368.128       671.12
   52      368.592       672.54
   53      369.055       672.62
   54      369.518       672.12
   55      369.981        671.2
   56      370.444          670
   57      370.907        669.5
   58       371.37        669.6
   59      371.832       669.18
   60      372.295       668.52
   61      372.757       668.16
   62       373.22       667.84
   63      373.682       667.86
   64      374.145       668.86
   65      374.607          670
   66      375.069       670.34
   67      375.531       670.52
   68      375.993       670.56
   69      376.455       670.02
   70      376.917       669.04
   71      377.379       668.38
   72      377.841        668.2
   73      378.302       668.22
   74      378.764       668.46
   75      379.225       668.92
   76      379.687       669.12
   77      380.148          669
   78      380.609        668.3
   79      381.071       667.56
   80      381.532        667.5
   81      381.993       667.42
   82      382.454       666.86
   83      382.915       666.48
   84      383.375        666.4
   85      383.836       666.28
   86      384.297       666.16
   87      384.757       666.34
   88      385.218       667.26
   89      385.678       668.08
   90      386.138       668.38
   91      386.599       668.64
   92      387.059       668.58
   93      387.519       667.82
   94      387.979          667
   95      388.439       666.42
   96      388.899       666.14
   97      389.358       666.32
   98      389.818       667.22
   99      390.278       668.08
  100      390.737       668.64
  101      391.197        669.2
  102      391.656       669.92
  103      392.115       669.62
  104      392.575       668.88
  105      393.034       668.56
  106      393.493       668.16
  107      393.952       667.94
  108      394.411       668.24
  109       394.87        668.6
  110      395.328       668.68
  111      395.787       668.76
  112      396.246       668.72
  113      396.704       668.58
  114      397.163       668.58
  115      397.621       668.96
  116      398.079       669.26
  117      398.537       668.84
  118      398.995       668.08
  119      399.454       667.16
  120      399.911       666.44
  121      400.369       666.34
  122      400.827       667.14
  123      401.285       668.26
  124      401.743       669.02
  125        402.2        669.3
  126      402.658       669.22
  127      403.115       668.62
  128      403.572        667.9
  129       404.03        667.7
  130      404.487       667.28
  131      404.944       666.36
  132      405.401       665.64
  133      405.858       665.36
  134      406.315       665.22
  135      406.771       665.24
  136      407.228       666.06
  137      407.685        666.8
  138      408.141       667.14
  139      408.598       667.74
  140      409.054       668.64
  141       409.51       669.18
  142      409.967       669.46
  143      410.423       669.44
  144      410.879       668.88
  145      411.335       668.12
  146      411.791       667.86
  147      412.246       668.32
  148      412.702       669.08
  149      413.158        669.5
  150      413.613       669.72
  151      414.069       669.64
  152      414.524       669.44
  153       414.98       669.52
  154      415.435       670.32
  155       415.89       671.28
  156      416.345       671.68
  157        416.8       671.58
  158      417.255       671.08
  159       417.71       670.42
  160      418.165       669.96
  161      418.619       669.74
  162      419.074       669.38
  163      419.529       668.92
  164      419.983       668.46
  165      420.437        668.1
  166      420.892       667.66
  167      421.346       667.28
  168        421.8        667.5
  169      422.254       667.92
  170      422.708       667.82
  171      423.162       667.54
  172      423.616       667.42
  173       424.07       667.66
  174      424.523       668.14
  175      424.977       668.88
  176       425.43       669.32
  177      425.884        669.3
  178      426.337       668.78
  179       426.79       667.84
  180      427.243       666.98
  181      427.697       666.88
  182       428.15        667.1
  183      428.602       667.08
  184      429.055       667.24
  185      429.508        667.6
  186      429.961        667.8
  187      430.413       668.14
  188      430.866       669.02
  189      431.318       670.14
  190      431.771       670.72
  191      432.223        670.8
  192      432.675       671.02
  193      433.127       671.08
  194      433.579       670.76
  195      434.031       670.26
  196      434.483       670.42
  197      434.935       670.46
  198      435.387       669.88
  199      435.838       669.22
  200       436.29        669.1
  201      436.741       668.46
  202      437.193       667.64
  203      437.644       667.72
  204      438.095       667.82
  205      438.546       667.82
  206      438.997       668.44
  207      439.448       669.36
  208      439.899       669.82
  209       440.35        669.6
  210      440.801       668.58
  211      441.251       667.28
  212      441.702       665.88
  213      442.152       664.74
  214      442.603       664.76
  215      443.053       666.04
  216      443.503       667.28
  217      443.954       668.28
  218      444.404       668.98
  219      444.854        669.2
  220      445.304       668.54
  221      445.753        667.4
  222      446.203       666.44
  223      446.653       665.84
  224      447.102       665.62
  225      447.552       665.98
  226      448.001       666.82
  227      448.451       667.66
  228        448.9       668.32
  229      449.349       668.82
  230      449.798        669.2
  231      450.247       669.72
  232      450.696       670.44
  233      451.145       671.06
  234      451.594       671.18
  235      452.042       670.86
  236      452.491       670.52
  237      452.939        670.1
  238      453.388       669.48
  239      453.836        669.2
  240      454.285       669.08
  241      454.733       668.94
  242      455.181       668.96
  243      455.629       669.04
  244      456.077       669.02
  245      456.525       669.16
  246      456.972       669.44
  247       457.42       669.62
  248      457.868       669.86
  249      458.315       669.88
  250      458.763        669.8
  251       459.21       668.92
  252      459.657       667.74
  253      460.104        667.1
  254      460.552       666.94
  255      460.999       667.06
  256      461.446       668.16
  257      461.892       669.32
  258      462.339       669.46
  259      462.786        669.1
  260      463.233       668.64
  261      463.679       667.76
  262      464.125       666.84
  263      464.572       666.32
  264      465.018       666.28
  265      465.464       666.28
  266       465.91       666.14
  267      466.356       666.26
  268      466.802       666.82
  269      467.248       667.42
  270      467.694        667.7
  271       468.14       667.96
  272      468.585       667.96
  273      469.031       667.76
  274      469.476       667.66
  275      469.922       667.98
  276      470.367       668.28
  277      470.812       668.52
  278      471.257       668.74
  279      471.702          669
  280      472.147       669.04
  281      472.592       669.26
  282      473.037       669.62
  283      473.482       670.24
  284      473.926       670.64
  285      474.371       670.96
  286      474.815       671.24
  287      475.259       671.18
  288      475.704       670.04
  289      476.148       668.38
  290      476.592        666.9
  291      477.036       665.62
  292       477.48       664.66
  293      477.924       664.52
  294      478.368       664.92
  295      478.811       665.32
  296      479.255       665.36
  297      479.698       665.26
  298      480.142        665.1
  299      480.585       664.84
  300      481.028       664.92
  301      481.472       665.44
  302      481.915       665.96
  303      482.358        666.8
  304      482.801        667.9
  305      483.244       668.62
  306      483.686       669.22
  307      484.129          670
  308      484.572        670.5
  309      485.014       670.72
  310      485.456       670.34
  311      485.899       669.28
  312      486.341       668.48
  313      486.783       667.86
  314      487.225       667.44
  315      487.667       667.56
  316      488.109        668.1
  317      488.551       668.48
  318      488.993       668.66
  319      489.434       668.74
  320      489.876       668.44
  321      490.318       667.94
  322      490.759       667.72
  323        491.2       667.56
  324      491.641       667.36
  325      492.083       667.66
  326      492.524       668.62
  327      492.965        669.4
  328      493.406        669.5
  329      493.846        669.2
  330      494.287        668.6
  331      494.728       667.72
  332      495.168       666.98
  333      495.609       666.66
  334      496.049        666.9
  335      496.489       667.38
  336       496.93       668.26
  337       497.37       669.22
  338       497.81       670.04
  339       498.25       670.76
  340       498.69        671.3
  341      499.129       671.06
  342      499.569        670.5
  343      500.009       669.74
  344      500.448       668.74
  345      500.888        668.2
  346      501.327       668.18
  347      501.766        668.5
  348      502.206       669.62
  349      502.645       670.54
  350      503.084       671.08
  351      503.523       671.48
  352      503.961       671.56
  353        504.4        671.6
  354      504.839       672.08
  355      505.277       672.06
  356      505.716       671.86
  357      506.154        671.7
  358      506.593       671.18
  359      507.031       670.16
  360      507.469       669.52
  361      507.907       669.12
  362      508.345        668.6
  363      508.783        668.4
  364      509.221       668.98
  365      509.659       670.14
  366      510.096       671.48
  367      510.534       672.66
  368      510.971       672.86
  369      511.409        672.1
  370      511.846       671.06
  371      512.283       669.82
  372       512.72       668.86
  373      513.157        668.7
  374      513.594       668.98
  375      514.031       669.32
  376      514.468       669.86
  377      514.905        670.1
  378      515.341       670.16
  379      515.778       670.42
  380      516.214        670.2
  381       516.65       669.72
  382      517.087       669.36
  383      517.523        669.4
  384      517.959       669.26
  385      518.395       669.18
  386      518.831       669.44
  387      519.267       669.86
  388      519.702       669.94
  389      520.138       670.18
  390      520.574       670.56
  391      521.009       670.94
  392      521.444        671.2
  393       521.88       671.42
  394      522.315       671.26
  395       522.75       671.22
  396      523.185       670.52
  397       523.62       669.44
  398      524.055       668.56
  399       524.49       667.86
  400      524.924       667.14
  401      525.359       667.14
  402      525.794       667.64
  403      526.228          668
  404      526.662       668.62
  405      527.097       669.22
  406      527.531       669.68
  407      527.965       670.16
  408      528.399       670.66
  409      528.833       671.04
  410      529.267        671.4
  411        529.7        671.6
  412      530.134        671.5
  413      530.568       671.54
  414      531.001       671.78
  415      531.434       671.74
  416      531.868       671.26
  417      532.301       670.96
  418      532.734        670.7
  419      533.167       670.38
  420        533.6       670.38
  421      534.033       670.52
  422      534.466       670.22
  423      534.898       670.04
  424      535.331       670.24
  425      535.763       670.32
  426      536.196       670.46
  427      536.628       670.92
  428       537.06       670.96
  429      537.493        670.6
  430      537.925       670.42
  431      538.357        669.9
  432      538.788       669.38
  433       539.22        669.2
  434      539.652       669.12
  435      540.084        669.3
  436      540.515       670.38
  437      540.947       671.94
  438      541.378       672.92
  439      541.809       673.32
  440       542.24       673.06
  441      542.672       672.48
  442      543.103       671.32
  443      543.533       670.32
  444      543.964       670.08
  445      544.395       670.48
  446      544.826        670.8
  447      545.256       671.38
  448      545.687          672
  449      546.117       671.92
  450      546.547        671.6
  451      546.978       671.64
  452      547.408       671.66
  453      547.838       671.44
  454      548.268       671.58
  455      548.698       671.88
  456      549.127       671.88
  457      549.557       671.96
  458      549.987       672.52
  459      550.416       672.72
  460      550.846       672.76
  461      551.275       672.92
  462      551.704       672.72
  463      552.133       672.32
  464      552.562       672.06
  465      552.991       671.64
  466       553.42       671.32
  467      553.849       671.42
  468      554.278       671.44
  469      554.706       671.48
  470      555.135       671.58
  471      555.563        671.5
  472      555.991       671.42
  473       556.42       671.66
  474      556.848       672.18
  475      557.276       672.62
  476      557.704       672.62
  477      558.132       672.18
  478       558.56       671.44
  479      558.987       670.34
  480      559.415       669.92
  481      559.843        669.9
  482       560.27       670.04
  483      560.697        670.4
  484      561.125        670.8
  485      561.552       670.56
  486      561.979       670.18
  487      562.406       670.02
  488      562.833       669.98
  489       563.26       670.04
  490      563.686       670.28
  491      564.113          671
  492       564.54       671.62
  493      564.966       671.66
  494      565.392       671.46
  495      565.819       671.36
  496      566.245       670.96
  497      566.671       670.58
  498      567.097       670.94
  499      567.523       671.64
  500      567.949       671.74
  501      568.374       671.74
  502        568.8        671.6
  503      569.226       671.16
  504      569.651        670.8
  505      570.077       670.48
  506      570.502        670.3
  507      570.927        670.3
  508      571.352       670.26
  509      571.777       670.12
  510      572.202       670.66
  511      572.627        671.4
  512      573.052       672.18
  513      573.476       672.76
  514      573.901       673.12
  515      574.325       673.12
  516       574.75          673
  517      575.174       673.14
  518      575.598       673.24
  519      576.022       672.92
  520      576.446       672.44
  521       576.87        671.6
  522      577.294       670.14
  523      577.718       668.74
  524      578.142        668.3
  525      578.565       668.28
  526      578.989       668.52
  527      579.412        669.1
  528      579.835          670
  529      580.259       670.66
  530      580.682       671.02
  531      581.105       671.56
  532      581.528       671.98
  533      581.951       672.14
  534      582.373       672.56
  535      582.796       672.88
  536      583.219       672.54
  537      583.641       672.78
  538      584.063       673.66
  539      584.486        674.2
  540      584.908       674.84
  541       585.33       675.28
  542      585.752       674.94
  543      586.174       674.26
  544      586.596       673.76
  545      587.018        673.5
  546      587.439          674
  547      587.861       674.66
  548      588.282       674.86
  549      588.704        674.6
  550      589.125       674.38
  551      589.546       674.24
  552      589.967       674.06
  553      590.388        673.9
  554      590.809       674.36
  555       591.23       674.88
  556      591.651       675.18
  557      592.071       675.82
  558      592.492       676.38
  559      592.912       676.08
  560      593.333       675.38
  561      593.753       674.56
  562      594.173       673.72
  563      594.593       673.48
  564      595.013       673.58
  565      595.433       673.54
  566      595.853       673.34
  567      596.273       673.14
  568      596.693       672.94
  569      597.112       673.58
  570      597.532       674.96
  571      597.951       676.48
  572       598.37        677.3
  573      598.789       677.52
  574      599.208       676.98
  575      599.627       676.24
  576      600.046       675.66
  577      600.465       675.68
  578      600.884       676.16
  579      601.303       676.92
  580      601.721       677.54
  581      602.139       678.02
  582      602.558       678.42
  583      602.976       678.72
  584      603.394        678.5
  585      603.812       677.94
  586       604.23       677.56
  587      604.648       677.08
  588      605.066        676.2
  589      605.484        675.6
  590      605.901       675.28
  591      606.319       674.98
  592      606.736       675.22
  593      607.154        675.5
  594      607.571       675.22
  595      607.988        675.1
  596      608.405       674.76
  597      608.822       673.74
  598      609.239       673.36
  599      609.656       673.88
  600      610.072       674.52
  601      610.489       675.34
  602      610.905       675.94
  603      611.322       676.16
  604      611.738       676.46
  605      612.154       676.54
  606       612.57       676.24
  607      612.986       676.38
  608      613.402        676.7
  609      613.818       676.36
  610      614.234       675.62
