scansci Spectrometer Data File
--- Measurement Setting ---
Type: Sample Spectrum
Date: Mon Oct 16 16:50:52 2023
User: (Reserved by scansci)
Serial: (Reserved by scansci)
Channel: No. 11
Integration Time: 1
Average: 10
Boxcar: 2
Electrical Dark: No-corrected
Time Normalize: (Reserved by scansci)
Dual-beam: (Reserved by scansci)
Reference Ch: (Reserved by scansci)
--- Measurement Data ---
Pixel   Wavelength   Intensity
    0        162.5      611.533
    1      162.985          611
    2      163.469       610.66
    3      163.954        610.5
    4      164.439       610.24
    5      164.923       609.64
    6      165.408       609.06
    7      165.892       608.34
    8      166.377       607.38
    9      166.861       605.98
   10      167.345       604.78
   11       167.83       604.36
   12      168.314       604.44
   13      168.798       604.48
   14      169.282       604.98
   15      169.766       605.82
   16       170.25        606.2
   17      170.734        606.1
   18      171.218       606.46
   19      171.702       607.38
   20      172.185        607.8
   21      172.669       608.08
   22      173.153       608.36
   23      173.636       608.48
   24       174.12        608.3
   25      174.603       607.92
   26      175.087       607.86
   27       175.57        608.1
   28      176.053       607.82
   29      176.537       607.16
   30       177.02        607.3
   31      177.503        607.6
   32      177.986       607.52
   33      178.469       608.04
   34      178.952        609.1
   35      179.435       610.32
   36      179.918       611.16
   37      180.401       612.28
   38      180.884        613.1
   39      181.366       612.68
   40      181.849       611.68
   41      182.332       610.74
   42      182.814       609.82
   43      183.297       609.06
   44      183.779       609.04
   45      184.262       609.62
   46      184.744       610.16
   47      185.226       610.12
   48      185.708       609.96
   49      186.191       610.04
   50      186.673       610.12
   51      187.155       610.38
   52      187.637       610.84
   53      188.119       611.28
   54        188.6       611.72
   55      189.082        611.5
   56      189.564       611.08
   57      190.046       611.06
   58      190.527        610.9
   59      191.009       610.22
   60      191.491       609.54
   61      191.972        609.2
   62      192.454       609.06
   63      192.935       608.66
   64      193.416       607.96
   65      193.897       607.72
   66      194.379       607.54
   67       194.86       606.98
   68      195.341       606.66
   69      195.822        606.9
   70      196.303       607.12
   71      196.784       607.14
   72      197.265        607.7
   73      197.746        608.7
   74      198.226       609.54
   75      198.707       609.98
   76      199.188       610.24
   77      199.668        609.9
   78      200.149       609.18
   79      200.629       608.66
   80       201.11        608.6
   81       201.59       608.98
   82       202.07       609.24
   83       202.55       609.52
   84      203.031       609.52
   85      203.511       608.96
   86      203.991       607.94
   87      204.471       606.78
   88      204.951       605.76
   89      205.431        605.2
   90       205.91       604.78
   91       206.39       604.16
   92       206.87       604.12
   93      207.349       604.32
   94      207.829       604.96
   95      208.309       605.88
   96      208.788       607.22
   97      209.267       608.62
   98      209.747       609.78
   99      210.226        609.5
  100      210.705        608.8
  101      211.185        608.4
  102      211.664       607.74
  103      212.143        607.1
  104      212.622       606.66
  105      213.101       606.12
  106      213.579        605.6
  107      214.058        605.6
  108      214.537        606.3
  109      215.016       607.92
  110      215.494       609.78
  111      215.973        611.4
  112      216.452       612.28
  113       216.93       611.72
  114      217.408       610.42
  115      217.887       608.76
  116      218.365       606.86
  117      218.843        605.2
  118      219.321        604.1
  119      219.799       603.76
  120      220.278       603.76
  121      220.755       603.62
  122      221.233        603.5
  123      221.711       603.58
  124      222.189       603.58
  125      222.667       603.76
  126      223.144        604.2
  127      223.622       605.02
  128        224.1        605.7
  129      224.577        605.7
  130      225.055        605.5
  131      225.532       605.22
  132      226.009       604.44
  133      226.486       603.98
  134      226.964       604.86
  135      227.441       606.18
  136      227.918       607.18
  137      228.395       608.14
  138      228.872       608.84
  139      229.349       608.78
  140      229.826       608.84
  141      230.302       608.84
  142      230.779       609.14
  143      231.256       610.02
  144      231.732       610.98
  145      232.209       611.16
  146      232.685       611.74
  147      233.162       611.72
  148      233.638       610.34
  149      234.114       608.06
  150       234.59       606.12
  151      235.066       604.58
  152      235.543       603.86
  153      236.019       604.24
  154      236.495       605.54
  155       236.97       606.86
  156      237.446       608.18
  157      237.922       609.58
  158      238.398        610.5
  159      238.873       610.54
  160      239.349       610.04
  161      239.824       608.86
  162        240.3       607.38
  163      240.775       606.36
  164      241.251       606.16
  165      241.726       606.54
  166      242.201       607.12
  167      242.676       607.66
  168      243.151          608
  169      243.626       607.94
  170      244.101       607.76
  171      244.576        607.7
  172      245.051       607.44
  173      245.526       607.08
  174          246       607.36
  175      246.475       607.12
  176       246.95       606.36
  177      247.424       605.88
  178      247.899       605.54
  179      248.373       604.38
  180      248.847       603.88
  181      249.321       604.46
  182      249.796       605.08
  183       250.27       605.14
  184      250.744       605.06
  185      251.218       605.02
  186      251.692        604.6
  187      252.166       604.08
  188      252.639       604.56
  189      253.113       605.72
  190      253.587       607.02
  191       254.06       608.32
  192      254.534       609.06
  193      255.007        608.5
  194      255.481       607.36
  195      255.954       606.22
  196      256.427        605.3
  197      256.901       604.76
  198      257.374       604.54
  199      257.847        604.4
  200       258.32       604.18
  201      258.793        603.5
  202      259.266       602.56
  203      259.739       602.22
  204      260.211       602.54
  205      260.684       602.66
  206      261.157       602.66
  207      261.629       603.04
  208      262.102       603.18
  209      262.574       603.14
  210      263.046        603.6
  211      263.519       604.78
  212      263.991        605.9
  213      264.463        606.9
  214      264.935        608.3
  215      265.407       609.14
  216      265.879       609.22
  217      266.351        609.1
  218      266.823       608.92
  219      267.295       607.94
  220      267.766       606.92
  221      268.238       606.28
  222       268.71          606
  223      269.181       606.14
  224      269.653       606.26
  225      270.124       606.22
  226      270.595        606.2
  227      271.066       606.04
  228      271.538       605.44
  229      272.009       605.16
  230       272.48       604.98
  231      272.951       604.74
  232      273.422       604.68
  233      273.892       604.98
  234      274.363       605.52
  235      274.834       606.34
  236      275.305        606.9
  237      275.775       606.76
  238      276.246        606.1
  239      276.716       604.78
  240      277.186       603.54
  241      277.657       602.76
  242      278.127       602.78
  243      278.597       603.72
  244      279.067       605.14
  245      279.537       606.32
  246      280.007       607.08
  247      280.477       607.36
  248      280.947        607.1
  249      281.417       606.86
  250      281.886       606.76
  251      282.356       606.72
  252      282.825       606.36
  253      283.295       605.96
  254      283.764       605.84
  255      284.234       605.74
  256      284.703        605.5
  257      285.172       605.68
  258      285.641       606.16
  259       286.11       606.16
  260      286.579       605.56
  261      287.048       605.12
  262      287.517       605.14
  263      287.986       605.42
  264      288.454       605.98
  265      288.923       606.34
  266      289.392       606.64
  267       289.86        607.1
  268      290.329       607.14
  269      290.797       607.18
  270      291.265       608.28
  271      291.734       609.48
  272      292.202       609.72
  273       292.67       609.54
  274      293.138        609.4
  275      293.606       608.96
  276      294.074        608.2
  277      294.541       607.52
  278      295.009       606.76
  279      295.477       605.28
  280      295.944          604
  281      296.412       603.42
  282      296.879       603.36
  283      297.347        603.5
  284      297.814       604.18
  285      298.281       604.98
  286      298.749       605.34
  287      299.216        605.3
  288      299.683        605.3
  289       300.15       605.12
  290      300.616       604.66
  291      301.083       604.62
  292       301.55       604.92
  293      302.017       605.18
  294      302.483       605.38
  295       302.95       605.26
  296      303.416       604.98
  297      303.883       604.96
  298      304.349       605.12
  299      304.815       605.26
  300      305.281       605.76
  301      305.748        606.2
  302      306.214        606.3
  303       306.68       606.42
  304      307.146       606.48
  305      307.611       605.96
  306      308.077       605.16
  307      308.543       604.48
  308      309.008       604.12
  309      309.474       604.12
  310      309.939       604.16
  311      310.405       603.78
  312       310.87       603.48
  313      311.335       603.44
  314        311.8       603.24
  315      312.266       603.08
  316      312.731       603.54
  317      313.196        604.7
  318       313.66       606.04
  319      314.125        607.8
  320       314.59       609.94
  321      315.055       611.74
  322      315.519       612.34
  323      315.984       611.56
  324      316.448       610.12
  325      316.913          609
  326      317.377       608.06
  327      317.841       606.86
  328      318.305       606.12
  329      318.769       605.84
  330      319.233       605.58
  331      319.697       605.76
  332      320.161        606.4
  333      320.625       607.08
  334      321.089        607.4
  335      321.552       607.34
  336      322.016       606.94
  337      322.479       606.28
  338      322.943        605.5
  339      323.406       604.72
  340      323.869        604.2
  341      324.333       604.04
  342      324.796       604.54
  343      325.259       604.78
  344      325.722       604.56
  345      326.185        604.4
  346      326.647        604.4
  347       327.11       604.18
  348      327.573        604.6
  349      328.035       605.92
  350      328.498       606.78
  351       328.96        606.5
  352      329.423        606.3
  353      329.885        606.2
  354      330.347       605.98
  355       330.81        606.1
  356      331.272       606.54
  357      331.734        606.2
  358      332.196       605.66
  359      332.657       605.36
  360      333.119       605.32
  361      333.581       605.96
  362      334.043       607.04
  363      334.504          608
  364      334.966       608.46
  365      335.427       608.16
  366      335.888       607.44
  367       336.35       606.88
  368      336.811       606.44
  369      337.272       606.62
  370      337.733       607.48
  371      338.194       608.02
  372      338.655       608.56
  373      339.115       609.26
  374      339.576       608.78
  375      340.037        607.8
  376      340.497       607.48
  377      340.958       607.28
  378      341.418       606.46
  379      341.879        606.1
  380      342.339       606.48
  381      342.799       606.76
  382      343.259        606.9
  383      343.719       607.38
  384      344.179       608.28
  385      344.639       608.58
  386      345.099       608.62
  387      345.559        608.3
  388      346.018       607.48
  389      346.478       606.12
  390      346.937        604.6
  391      347.397       603.38
  392      347.856       603.04
  393      348.315       603.32
  394      348.774        603.3
  395      349.234        603.3
  396      349.693        603.7
  397      350.152        603.5
  398       350.61        602.9
  399      351.069       602.82
  400      351.528       602.92
  401      351.987        602.9
  402      352.445       603.22
  403      352.904        603.8
  404      353.362       604.36
  405       353.82       604.76
  406      354.279       604.48
  407      354.737       603.84
  408      355.195       603.76
  409      355.653       604.08
  410      356.111       604.38
  411      356.569       604.52
  412      357.027       604.48
  413      357.484       604.14
  414      357.942       603.94
  415      358.399          604
  416      358.857       604.38
  417      359.314       605.16
  418      359.772       605.98
  419      360.229       606.38
  420      360.686       606.62
  421      361.143       606.72
  422        361.6       606.52
  423      362.057       605.94
  424      362.514       605.48
  425      362.971       605.04
  426      363.427       604.42
  427      363.884       603.74
  428       364.34       603.24
  429      364.797       603.02
  430      365.253       602.98
  431      365.709       603.18
  432      366.166       603.62
  433      366.622        604.2
  434      367.078        604.6
  435      367.534       604.92
  436       367.99       605.06
  437      368.445       605.06
  438      368.901       605.12
  439      369.357        605.2
  440      369.812        605.2
  441      370.268       605.44
  442      370.723       606.06
  443      371.179       606.54
  444      371.634       606.64
  445      372.089        606.9
  446      372.544        607.6
  447      372.999       607.68
  448      373.454       607.22
  449      373.909       606.76
  450      374.364       606.36
  451      374.818       604.86
  452      375.273       603.28
  453      375.727       602.26
  454      376.182       601.52
  455      376.636        600.9
  456       377.09       601.18
  457      377.545       601.82
  458      377.999       602.06
  459      378.453       602.24
  460      378.907       602.38
  461      379.361       602.52
  462      379.814       602.38
  463      380.268       602.06
  464      380.722        602.1
  465      381.175        602.7
  466      381.629        603.5
  467      382.082        604.5
  468      382.535       606.16
  469      382.989       606.92
  470      383.442       606.66
  471      383.895       606.22
  472      384.348       606.18
  473      384.801        605.6
  474      385.253       604.96
  475      385.706       604.72
  476      386.159        604.4
  477      386.611        604.1
  478      387.064       604.26
  479      387.516       604.82
  480      387.968       605.54
  481      388.421       606.42
  482      388.873       606.76
  483      389.325        606.9
  484      389.777       607.14
  485      390.229       606.96
  486      390.681       606.58
  487      391.132       606.06
  488      391.584       605.16
  489      392.035       604.32
  490      392.487       603.94
  491      392.938        603.6
  492       393.39          604
  493      393.841        604.5
  494      394.292       604.66
  495      394.743       604.72
  496      395.194        604.8
  497      395.645        604.6
  498      396.096       604.52
  499      396.546       605.14
  500      396.997       605.68
  501      397.448       605.88
  502      397.898       605.62
  503      398.349        605.7
  504      398.799       605.54
  505      399.249       605.88
  506      399.699       606.76
  507      400.149       607.52
  508      400.599       607.78
  509      401.049       607.84
  510      401.499       607.36
  511      401.949       606.32
  512      402.398        605.7
  513      402.848        605.8
  514      403.297       605.92
  515      403.747        605.6
  516      404.196       605.56
  517      404.645       605.48
  518      405.094       604.88
  519      405.543       604.24
  520      405.992       603.86
  521      406.441       603.14
  522       406.89       602.88
  523      407.339       602.72
  524      407.787       602.44
  525      408.236          602
  526      408.684       602.08
  527      409.132        602.3
  528      409.581       602.92
  529      410.029       603.84
  530      410.477       605.06
  531      410.925       605.64
  532      411.373       605.66
  533      411.821       605.26
  534      412.269       604.92
  535      412.716        604.2
  536      413.164        603.5
  537      413.611       603.14
  538      414.059       603.44
  539      414.506       604.16
  540      414.953       605.28
  541        415.4       606.94
  542      415.847        608.7
  543      416.294       609.88
  544      416.741       610.08
  545      417.188       609.94
  546      417.635       609.62
  547      418.081       608.86
  548      418.528        607.6
  549      418.974        606.5
  550      419.421       606.52
  551      419.867       606.84
  552      420.313       607.44
  553      420.759       608.78
  554      421.205       610.16
  555      421.651        610.5
  556      422.097       610.64
  557      422.543       610.76
  558      422.989       611.22
  559      423.434       612.04
  560       423.88       612.62
  561      424.325          613
  562       424.77       613.22
  563      425.216       612.94
  564      425.661        612.7
  565      426.106       612.94
  566      426.551       613.44
  567      426.996        613.9
  568       427.44       614.38
  569      427.885       614.64
  570       428.33       614.82
  571      428.774       614.98
  572      429.219        615.2
  573      429.663       615.42
  574      430.107       615.82
  575      430.551       616.18
  576      430.996       616.34
  577       431.44       616.76
  578      431.883       617.82
  579      432.327        619.1
  580      432.771       620.48
  581      433.215       621.78
  582      433.658       623.02
  583      434.102        623.8
  584      434.545       624.46
  585      434.988       625.12
  586      435.431       625.78
  587      435.875       626.52
  588      436.318       627.38
  589      436.761       628.28
  590      437.203        629.4
  591      437.646       630.68
  592      438.089       631.92
  593      438.531        632.7
  594      438.974        633.3
  595      439.416       634.42
  596      439.859       636.04
  597      440.301       637.44
  598      440.743        639.1
  599      441.185       640.56
  600      441.627       641.26
  601      442.069       642.12
  602       442.51       643.58
  603      442.952       645.14
  604      443.394        646.7
  605      443.835       648.58
  606      444.277       650.24
  607      444.718       650.68
  608      445.159       650.76
  609        445.6        651.7
  610      446.041       653.34
