scansci Spectrometer Data File
--- Measurement Setting ---
Type: Sample Spectrum
Date: Mon Oct 16 16:19:42 2023
User: (Reserved by scansci)
Serial: (Reserved by scansci)
Channel: No. 11
Integration Time: 1
Average: 10
Boxcar: 2
Electrical Dark: No-corrected
Time Normalize: (Reserved by scansci)
Dual-beam: (Reserved by scansci)
Reference Ch: (Reserved by scansci)
--- Measurement Data ---
Pixel   Wavelength   Intensity
    0        344.4        627.2
    1      344.867          627
    2      345.334       626.54
    3      345.801       626.08
    4      346.268        625.8
    5      346.735       625.66
    6      347.202       625.06
    7      347.669       624.54
    8      348.135       624.18
    9      348.602       623.48
   10      349.068       622.88
   11      349.535       622.88
   12      350.001        623.4
   13      350.467       624.28
   14      350.933       625.26
   15      351.399       625.82
   16      351.866       626.28
   17      352.331       626.98
   18      352.797       627.46
   19      353.263       627.74
   20      353.729       628.04
   21      354.194        628.1
   22       354.66       627.52
   23      355.126       626.62
   24      355.591       625.58
   25      356.056       625.22
   26      356.522       625.62
   27      356.987       626.48
   28      357.452       626.88
   29      357.917       627.36
   30      358.382       627.56
   31      358.847       627.42
   32      359.312       626.96
   33      359.776        626.9
   34      360.241       626.84
   35      360.706       626.54
   36       361.17       626.28
   37      361.634        626.3
   38      362.099       626.52
   39      362.563       627.04
   40      363.027       627.94
   41      363.491        628.8
   42      363.955       629.54
   43      364.419       629.98
   44      364.883       630.06
   45      365.347       629.72
   46      365.811       628.72
   47      366.274       627.14
   48      366.738        626.1
   49      367.201       625.72
   50      367.665       625.14
   51      368.128       624.76
   52      368.592          625
   53      369.055       625.08
   54      369.518       624.86
   55      369.981       624.82
   56      370.444       624.88
   57      370.907       624.92
   58       371.37       624.96
   59      371.832       624.96
   60      372.295       625.46
   61      372.757       625.92
   62       373.22        626.1
   63      373.682       626.02
   64      374.145       626.16
   65      374.607       626.36
   66      375.069       626.56
   67      375.531        626.8
   68      375.993       627.08
   69      376.455       627.04
   70      376.917       626.96
   71      377.379        627.1
   72      377.841       626.82
   73      378.302       626.42
   74      378.764       626.08
   75      379.225       625.78
   76      379.687       625.66
   77      380.148       625.82
   78      380.609       626.04
   79      381.071       626.14
   80      381.532       626.12
   81      381.993       625.76
   82      382.454        625.5
   83      382.915       625.32
   84      383.375       624.78
   85      383.836       624.12
   86      384.297       623.76
   87      384.757        623.5
   88      385.218       623.66
   89      385.678        624.8
   90      386.138        626.1
   91      386.599       627.36
   92      387.059       628.88
   93      387.519       629.82
   94      387.979        630.1
   95      388.439       630.14
   96      388.899          630
   97      389.358       629.68
   98      389.818       629.84
   99      390.278       629.88
  100      390.737       629.36
  101      391.197       628.76
  102      391.656        628.1
  103      392.115       626.76
  104      392.575        625.6
  105      393.034        625.1
  106      393.493       624.94
  107      393.952        624.9
  108      394.411       625.08
  109       394.87       624.98
  110      395.328       624.84
  111      395.787       624.86
  112      396.246       624.86
  113      396.704       625.18
  114      397.163       625.82
  115      397.621       626.24
  116      398.079       626.58
  117      398.537       627.28
  118      398.995       628.32
  119      399.454       629.36
  120      399.911       630.24
  121      400.369       630.56
  122      400.827       630.18
  123      401.285       629.14
  124      401.743       627.78
  125        402.2       626.48
  126      402.658        625.3
  127      403.115       624.18
  128      403.572       623.28
  129       404.03          623
  130      404.487       623.52
  131      404.944       624.34
  132      405.401       625.12
  133      405.858       625.44
  134      406.315       625.94
  135      406.771        625.9
  136      407.228        625.7
  137      407.685       625.48
  138      408.141       625.44
  139      408.598       625.16
  140      409.054       625.24
  141       409.51       624.96
  142      409.967       624.74
  143      410.423       624.82
  144      410.879       624.74
  145      411.335        624.4
  146      411.791        624.7
  147      412.246        625.4
  148      412.702       625.84
  149      413.158        625.9
  150      413.613       626.18
  151      414.069       626.42
  152      414.524        626.4
  153       414.98       626.74
  154      415.435       626.98
  155       415.89       626.44
  156      416.345       625.74
  157        416.8        625.8
  158      417.255       625.82
  159       417.71       625.98
  160      418.165       626.64
  161      418.619       627.46
  162      419.074        627.3
  163      419.529       626.34
  164      419.983       625.62
  165      420.437       625.42
  166      420.892       624.76
  167      421.346        624.1
  168        421.8       624.48
  169      422.254       625.14
  170      422.708       625.46
  171      423.162          626
  172      423.616       626.52
  173       424.07       626.42
  174      424.523       625.74
  175      424.977       624.98
  176       425.43       624.56
  177      425.884       624.54
  178      426.337       624.72
  179       426.79       625.48
  180      427.243       626.38
  181      427.697       626.76
  182       428.15       626.46
  183      428.602          626
  184      429.055       625.32
  185      429.508       624.62
  186      429.961       624.44
  187      430.413       624.84
  188      430.866       625.04
  189      431.318       625.32
  190      431.771       625.64
  191      432.223        625.4
  192      432.675       625.52
  193      433.127        626.1
  194      433.579       626.24
  195      434.031       626.42
  196      434.483        626.9
  197      434.935       627.12
  198      435.387       626.96
  199      435.838       626.78
  200       436.29       626.24
  201      436.741       625.98
  202      437.193        625.5
  203      437.644       625.38
  204      438.095       625.86
  205      438.546        626.6
  206      438.997        627.2
  207      439.448        627.8
  208      439.899       628.24
  209       440.35        628.2
  210      440.801       627.74
  211      441.251       626.78
  212      441.702        625.7
  213      442.152       624.34
  214      442.603       623.32
  215      443.053       622.92
  216      443.503       623.52
  217      443.954       625.14
  218      444.404       627.42
  219      444.854       629.02
  220      445.304       629.98
  221      445.753       630.56
  222      446.203       630.06
  223      446.653       628.82
  224      447.102       627.62
  225      447.552       626.66
  226      448.001       625.82
  227      448.451       625.32
  228        448.9       625.72
  229      449.349       626.38
  230      449.798       626.84
  231      450.247       626.72
  232      450.696       626.16
  233      451.145       624.94
  234      451.594       623.82
  235      452.042       623.12
  236      452.491       622.44
  237      452.939       621.98
  238      453.388       622.02
  239      453.836       622.54
  240      454.285        623.2
  241      454.733       623.84
  242      455.181       624.52
  243      455.629       625.12
  244      456.077       625.18
  245      456.525       624.62
  246      456.972       624.42
  247       457.42       624.84
  248      457.868       624.76
  249      458.315       624.62
  250      458.763       624.94
  251       459.21       624.94
  252      459.657        624.5
  253      460.104       624.28
  254      460.552       624.14
  255      460.999       623.92
  256      461.446       624.18
  257      461.892       624.54
  258      462.339       625.08
  259      462.786       625.96
  260      463.233       626.84
  261      463.679       627.06
  262      464.125        626.9
  263      464.572       626.82
  264      465.018        626.5
  265      465.464       626.16
  266       465.91       626.04
  267      466.356       625.92
  268      466.802       625.84
  269      467.248       626.06
  270      467.694       626.18
  271       468.14       626.28
  272      468.585        626.6
  273      469.031       626.58
  274      469.476       626.14
  275      469.922        625.5
  276      470.367       624.94
  277      470.812       624.68
  278      471.257       624.62
  279      471.702        624.8
  280      472.147       625.22
  281      472.592       625.18
  282      473.037       624.72
  283      473.482        624.4
  284      473.926       624.52
  285      474.371       624.52
  286      474.815       624.84
  287      475.259       625.64
  288      475.704       626.28
  289      476.148       626.54
  290      476.592       627.02
  291      477.036        627.5
  292       477.48       627.72
  293      477.924       627.92
  294      478.368       627.92
  295      478.811        627.7
  296      479.255        627.5
  297      479.698       627.16
  298      480.142          627
  299      480.585       626.46
  300      481.028        625.7
  301      481.472        624.8
  302      481.915       624.28
  303      482.358       624.18
  304      482.801       624.64
  305      483.244       625.52
  306      483.686       626.92
  307      484.129        627.9
  308      484.572       628.04
  309      485.014       628.18
  310      485.456       628.44
  311      485.899       628.38
  312      486.341        628.5
  313      486.783       628.82
  314      487.225       628.72
  315      487.667        628.4
  316      488.109       628.14
  317      488.551       627.82
  318      488.993       627.48
  319      489.434       627.16
  320      489.876       626.96
  321      490.318       626.98
  322      490.759       626.84
  323        491.2       627.18
  324      491.641       627.96
  325      492.083       628.36
  326      492.524        628.9
  327      492.965       629.38
  328      493.406        629.4
  329      493.846       628.98
  330      494.287       628.86
  331      494.728       628.66
  332      495.168       628.62
  333      495.609        628.3
  334      496.049       628.16
  335      496.489       627.86
  336       496.93       627.42
  337       497.37        626.9
  338       497.81       626.38
  339       498.25          626
  340       498.69       625.94
  341      499.129       626.04
  342      499.569       625.94
  343      500.009        625.7
  344      500.448       625.66
  345      500.888       625.46
  346      501.327       625.34
  347      501.766        625.5
  348      502.206       625.96
  349      502.645       626.12
  350      503.084       625.94
  351      503.523       625.38
  352      503.961       625.06
  353        504.4       624.88
  354      504.839       624.44
  355      505.277       624.12
  356      505.716       624.58
  357      506.154       625.04
  358      506.593       625.58
  359      507.031        626.3
  360      507.469       627.04
  361      507.907       626.68
  362      508.345        625.9
  363      508.783       625.08
  364      509.221        624.7
  365      509.659        624.7
  366      510.096       625.04
  367      510.534       625.54
  368      510.971       626.12
  369      511.409       626.52
  370      511.846       626.34
  371      512.283       625.88
  372       512.72       625.48
  373      513.157       625.28
  374      513.594       625.16
  375      514.031       625.46
  376      514.468       626.24
  377      514.905       627.54
  378      515.341       628.44
  379      515.778       629.06
  380      516.214       629.46
  381       516.65       629.58
  382      517.087       629.12
  383      517.523        628.3
  384      517.959       627.72
  385      518.395        627.5
  386      518.831       627.34
  387      519.267       627.18
  388      519.702       627.44
  389      520.138       627.36
  390      520.574       626.96
  391      521.009       626.28
  392      521.444        625.3
  393       521.88        624.7
  394      522.315       624.98
  395       522.75       626.12
  396      523.185        627.4
  397       523.62        628.8
  398      524.055        629.7
  399       524.49       629.58
  400      524.924       628.74
  401      525.359          628
  402      525.794       627.62
  403      526.228       627.16
  404      526.662        626.8
  405      527.097        626.6
  406      527.531       626.84
  407      527.965       627.12
  408      528.399       627.26
  409      528.833        627.4
  410      529.267       627.32
  411        529.7       627.58
  412      530.134       628.02
  413      530.568       628.76
  414      531.001       629.74
  415      531.434       630.52
  416      531.868        630.1
  417      532.301        629.2
  418      532.734       628.44
  419      533.167       627.76
  420        533.6       627.58
  421      534.033       628.16
  422      534.466        629.1
  423      534.898       629.98
  424      535.331       631.08
  425      535.763       631.58
  426      536.196       631.66
  427      536.628        631.8
  428       537.06       631.56
  429      537.493       630.54
  430      537.925        630.1
  431      538.357       630.02
  432      538.788       629.58
  433       539.22       629.68
  434      539.652       630.74
  435      540.084       632.02
  436      540.515       633.42
  437      540.947       635.14
  438      541.378       636.68
  439      541.809       637.24
  440       542.24       637.12
  441      542.672       637.02
  442      543.103       636.76
  443      543.533       636.26
  444      543.964        636.5
  445      544.395       636.88
  446      544.826       636.92
  447      545.256       637.22
  448      545.687        637.5
  449      546.117       637.82
  450      546.547        639.1
  451      546.978       640.36
  452      547.408       640.74
  453      547.838       641.36
  454      548.268       642.06
  455      548.698       642.26
  456      549.127       642.72
  457      549.557        643.9
  458      549.987       645.22
  459      550.416        646.6
  460      550.846       647.92
  461      551.275       649.02
  462      551.704       649.48
  463      552.133       649.18
  464      552.562       648.24
  465      552.991       647.44
  466       553.42        647.1
  467      553.849       647.72
  468      554.278       649.64
  469      554.706        652.4
  470      555.135       655.16
  471      555.563       657.42
  472      555.991        659.3
  473       556.42       660.54
  474      556.848        661.1
  475      557.276       660.94
  476      557.704       660.92
  477      558.132       661.12
  478       558.56        661.5
  479      558.987       662.64
  480      559.415       664.32
  481      559.843       665.88
  482       560.27       667.18
  483      560.697        668.7
  484      561.125       669.98
  485      561.552        671.3
  486      561.979       672.78
  487      562.406       674.48
  488      562.833        676.4
  489       563.26       678.56
  490      563.686       680.76
  491      564.113       683.02
  492       564.54       685.26
  493      564.966       687.18
  494      565.392       688.28
  495      565.819       688.98
  496      566.245       690.08
  497      566.671       691.58
  498      567.097       693.28
  499      567.523       695.86
  500      567.949          699
  501      568.374       701.88
  502        568.8       704.08
  503      569.226       705.74
  504      569.651       707.04
  505      570.077       708.24
  506      570.502       709.62
  507      570.927       711.32
  508      571.352       712.74
  509      571.777       713.68
  510      572.202       714.52
  511      572.627        715.1
  512      573.052       716.08
  513      573.476       718.32
  514      573.901       721.52
  515      574.325       724.44
  516       574.75       727.32
  517      575.174       730.14
  518      575.598       732.28
  519      576.022       733.86
  520      576.446        735.5
  521       576.87        736.9
  522      577.294        738.4
  523      577.718       740.22
  524      578.142       742.14
  525      578.565        744.4
  526      578.989       746.58
  527      579.412       748.34
  528      579.835       750.42
  529      580.259       752.78
  530      580.682       754.88
  531      581.105       756.92
  532      581.528        759.2
  533      581.951       761.54
  534      582.373       763.78
  535      582.796       766.48
  536      583.219       769.56
  537      583.641        772.1
  538      584.063       773.74
  539      584.486       775.08
  540      584.908       775.94
  541       585.33       777.28
  542      585.752       779.18
  543      586.174       781.58
  544      586.596       784.58
  545      587.018       787.94
  546      587.439       790.96
  547      587.861       793.48
  548      588.282        795.9
  549      588.704       797.38
  550      589.125       798.74
  551      589.546       800.76
  552      589.967       803.06
  553      590.388       805.44
  554      590.809        808.6
  555       591.23       811.68
  556      591.651       814.04
  557      592.071       816.84
  558      592.492        819.5
  559      592.912       822.24
  560      593.333       825.32
  561      593.753       827.94
  562      594.173       829.58
  563      594.593       830.82
  564      595.013       831.54
  565      595.433       831.24
  566      595.853       831.44
  567      596.273       832.34
  568      596.693       832.98
  569      597.112       832.96
  570      597.532       833.66
  571      597.951       834.48
  572       598.37       834.88
  573      598.789       835.84
  574      599.208       837.94
  575      599.627       840.16
  576      600.046       842.16
  577      600.465        844.6
  578      600.884       847.02
  579      601.303       848.38
  580      601.721        848.9
  581      602.139        849.1
  582      602.558        849.1
  583      602.976       849.12
  584      603.394        849.4
  585      603.812        850.1
  586       604.23        851.6
  587      604.648       853.22
  588      605.066       855.02
  589      605.484       857.66
  590      605.901       860.46
  591      606.319       862.34
  592      606.736        863.6
  593      607.154       864.32
  594      607.571       864.38
  595      607.988       864.56
  596      608.405       864.82
  597      608.822       865.12
  598      609.239       865.56
  599      609.656       865.78
  600      610.072       865.68
  601      610.489        865.8
  602      610.905       865.74
  603      611.322       865.26
  604      611.738       865.02
  605      612.154       864.88
  606       612.57       864.72
  607      612.986       864.56
  608      613.402       864.14
  609      613.818       862.92
  610      614.234       861.92
