scansci Spectrometer Data File
--- Measurement Setting ---
Type: Sample Spectrum
Date: Mon Oct 16 16:47:01 2023
User: (Reserved by scansci)
Serial: (Reserved by scansci)
Channel: No. 11
Integration Time: 1
Average: 10
Boxcar: 2
Electrical Dark: No-corrected
Time Normalize: (Reserved by scansci)
Dual-beam: (Reserved by scansci)
Reference Ch: (Reserved by scansci)
--- Measurement Data ---
Pixel   Wavelength   Intensity
    0        344.4      706.567
    1      344.867      706.375
    2      345.334       706.58
    3      345.801        706.7
    4      346.268       706.58
    5      346.735       706.52
    6      347.202       706.46
    7      347.669       705.92
    8      348.135       705.94
    9      348.602        706.5
   10      349.068       707.24
   11      349.535       707.48
   12      350.001       707.56
   13      350.467       707.42
   14      350.933       707.48
   15      351.399       707.12
   16      351.866       706.92
   17      352.331       706.86
   18      352.797       706.26
   19      353.263       705.02
   20      353.729        704.2
   21      354.194       704.26
   22       354.66       704.68
   23      355.126       705.22
   24      355.591       705.92
   25      356.056        706.6
   26      356.522       706.74
   27      356.987       706.72
   28      357.452       706.52
   29      357.917       705.94
   30      358.382       705.58
   31      358.847       705.28
   32      359.312       704.46
   33      359.776       703.84
   34      360.241        703.9
   35      360.706       703.68
   36       361.17       703.72
   37      361.634       704.32
   38      362.099       704.94
   39      362.563       705.32
   40      363.027       705.74
   41      363.491        706.1
   42      363.955       706.54
   43      364.419       706.94
   44      364.883       707.06
   45      365.347       706.94
   46      365.811       706.14
   47      366.274       704.96
   48      366.738       704.24
   49      367.201       703.84
   50      367.665       703.44
   51      368.128       703.86
   52      368.592        704.6
   53      369.055       704.32
   54      369.518       703.62
   55      369.981       703.26
   56      370.444       702.88
   57      370.907       702.28
   58       371.37       702.48
   59      371.832       703.26
   60      372.295       703.58
   61      372.757       703.46
   62       373.22       703.72
   63      373.682        704.3
   64      374.145       704.76
   65      374.607        705.4
   66      375.069       706.68
   67      375.531       707.46
   68      375.993       707.44
   69      376.455       707.22
   70      376.917       707.16
   71      377.379        706.5
   72      377.841       706.32
   73      378.302       706.64
   74      378.764       706.68
   75      379.225       706.66
   76      379.687        706.7
   77      380.148       706.54
   78      380.609       705.98
   79      381.071       705.44
   80      381.532       704.88
   81      381.993       704.28
   82      382.454       703.32
   83      382.915       702.76
   84      383.375       702.98
   85      383.836       703.32
   86      384.297        703.8
   87      384.757       704.74
   88      385.218       705.84
   89      385.678       706.56
   90      386.138       707.14
   91      386.599       707.62
   92      387.059       707.82
   93      387.519       707.42
   94      387.979       706.64
   95      388.439       705.78
   96      388.899       705.08
   97      389.358       704.44
   98      389.818       704.06
   99      390.278       703.86
  100      390.737       703.52
  101      391.197       703.42
  102      391.656        703.4
  103      392.115       703.56
  104      392.575       704.04
  105      393.034        704.8
  106      393.493       705.12
  107      393.952        705.3
  108      394.411          705
  109       394.87        704.4
  110      395.328          704
  111      395.787       703.52
  112      396.246       703.24
  113      396.704       703.42
  114      397.163       703.76
  115      397.621       704.14
  116      398.079       705.32
  117      398.537       706.44
  118      398.995       706.96
  119      399.454       706.98
  120      399.911        706.6
  121      400.369        705.8
  122      400.827        705.5
  123      401.285       705.88
  124      401.743       706.56
  125        402.2       706.94
  126      402.658          707
  127      403.115       706.54
  128      403.572        705.7
  129       404.03       704.84
  130      404.487        704.5
  131      404.944       704.34
  132      405.401       704.16
  133      405.858        704.1
  134      406.315       704.26
  135      406.771       704.32
  136      407.228       704.44
  137      407.685       704.68
  138      408.141       704.66
  139      408.598       704.48
  140      409.054       704.58
  141       409.51       704.62
  142      409.967        704.1
  143      410.423       703.36
  144      410.879       702.66
  145      411.335        701.6
  146      411.791       700.72
  147      412.246        700.6
  148      412.702       700.88
  149      413.158       701.76
  150      413.613        703.2
  151      414.069        704.6
  152      414.524       705.66
  153       414.98       706.68
  154      415.435       706.72
  155       415.89       705.72
  156      416.345        704.9
  157        416.8       704.16
  158      417.255       703.14
  159       417.71        702.6
  160      418.165       702.54
  161      418.619        702.2
  162      419.074       702.22
  163      419.529        702.8
  164      419.983        703.3
  165      420.437       703.86
  166      420.892       704.04
  167      421.346          704
  168        421.8       704.28
  169      422.254       704.62
  170      422.708       705.08
  171      423.162       705.44
  172      423.616       705.38
  173       424.07       705.44
  174      424.523       705.56
  175      424.977       705.72
  176       425.43       706.42
  177      425.884       707.12
  178      426.337       706.64
  179       426.79       705.88
  180      427.243       704.96
  181      427.697       703.78
  182       428.15       702.88
  183      428.602       702.78
  184      429.055        702.8
  185      429.508        702.4
  186      429.961       701.96
  187      430.413       702.08
  188      430.866       702.26
  189      431.318       702.32
  190      431.771       703.04
  191      432.223       703.98
  192      432.675       705.02
  193      433.127        705.9
  194      433.579        706.6
  195      434.031        706.9
  196      434.483       707.34
  197      434.935       707.12
  198      435.387       706.58
  199      435.838        706.1
  200       436.29       705.72
  201      436.741       705.14
  202      437.193       704.46
  203      437.644       704.16
  204      438.095        704.6
  205      438.546       704.86
  206      438.997        704.5
  207      439.448       704.18
  208      439.899       703.44
  209       440.35       702.08
  210      440.801       701.22
  211      441.251        701.2
  212      441.702       701.28
  213      442.152        702.2
  214      442.603       703.76
  215      443.053       704.52
  216      443.503       704.94
  217      443.954       705.68
  218      444.404        705.9
  219      444.854        705.8
  220      445.304       706.54
  221      445.753       707.58
  222      446.203       708.34
  223      446.653       708.68
  224      447.102       708.68
  225      447.552       708.32
  226      448.001        707.7
  227      448.451       706.94
  228        448.9       706.58
  229      449.349       706.96
  230      449.798       707.76
  231      450.247       707.78
  232      450.696       707.26
  233      451.145       706.66
  234      451.594       705.38
  235      452.042       703.68
  236      452.491       702.78
  237      452.939        702.2
  238      453.388       701.74
  239      453.836       701.92
  240      454.285       702.66
  241      454.733        703.8
  242      455.181        705.5
  243      455.629       707.12
  244      456.077        707.9
  245      456.525        707.9
  246      456.972       707.34
  247       457.42       706.36
  248      457.868       705.28
  249      458.315       704.18
  250      458.763       703.54
  251       459.21       703.28
  252      459.657       703.56
  253      460.104       704.34
  254      460.552       705.34
  255      460.999       705.74
  256      461.446       705.86
  257      461.892       705.66
  258      462.339       705.12
  259      462.786       704.58
  260      463.233       704.14
  261      463.679       703.86
  262      464.125       703.24
  263      464.572       702.52
  264      465.018       702.06
  265      465.464        701.5
  266       465.91        701.1
  267      466.356        701.7
  268      466.802       702.62
  269      467.248       703.18
  270      467.694       704.14
  271       468.14       704.72
  272      468.585       704.32
  273      469.031       703.84
  274      469.476       703.72
  275      469.922          704
  276      470.367       704.62
  277      470.812       705.22
  278      471.257       705.64
  279      471.702       706.18
  280      472.147        706.4
  281      472.592       706.24
  282      473.037       705.82
  283      473.482       705.54
  284      473.926        705.3
  285      474.371       704.84
  286      474.815       704.26
  287      475.259       703.82
  288      475.704        703.3
  289      476.148       702.54
  290      476.592       702.42
  291      477.036       702.58
  292       477.48        702.7
  293      477.924        702.9
  294      478.368       703.52
  295      478.811       703.98
  296      479.255       704.26
  297      479.698       704.88
  298      480.142       705.28
  299      480.585        705.5
  300      481.028       705.26
  301      481.472       705.06
  302      481.915        704.8
  303      482.358       704.74
  304      482.801        704.3
  305      483.244          704
  306      483.686       704.18
  307      484.129       704.66
  308      484.572       705.04
  309      485.014       705.34
  310      485.456       705.28
  311      485.899       704.48
  312      486.341       703.66
  313      486.783       703.06
  314      487.225        702.6
  315      487.667        702.2
  316      488.109       702.16
  317      488.551       702.12
  318      488.993       702.22
  319      489.434       702.32
  320      489.876       702.68
  321      490.318       703.14
  322      490.759          703
  323        491.2       703.04
  324      491.641       703.82
  325      492.083       704.14
  326      492.524        704.2
  327      492.965        704.6
  328      493.406       704.62
  329      493.846       703.88
  330      494.287       703.52
  331      494.728       703.56
  332      495.168       703.64
  333      495.609       703.88
  334      496.049       704.16
  335      496.489       704.68
  336       496.93       705.44
  337       497.37       706.02
  338       497.81       706.26
  339       498.25        706.8
  340       498.69       707.26
  341      499.129       707.48
  342      499.569       708.14
  343      500.009        708.8
  344      500.448       708.86
  345      500.888        708.5
  346      501.327       707.94
  347      501.766       707.38
  348      502.206       706.84
  349      502.645        706.3
  350      503.084        705.9
  351      503.523        705.4
  352      503.961       704.86
  353        504.4        704.9
  354      504.839       705.44
  355      505.277       706.44
  356      505.716        707.5
  357      506.154       708.36
  358      506.593       708.42
  359      507.031       708.14
  360      507.469       707.68
  361      507.907       707.14
  362      508.345       706.64
  363      508.783       706.34
  364      509.221       706.16
  365      509.659       705.84
  366      510.096        706.1
  367      510.534       706.96
  368      510.971        707.9
  369      511.409       708.96
  370      511.846       709.84
  371      512.283       709.96
  372       512.72       709.46
  373      513.157       708.56
  374      513.594       707.42
  375      514.031       706.58
  376      514.468       706.42
  377      514.905       706.72
  378      515.341       707.48
  379      515.778       708.58
  380      516.214       709.68
  381       516.65       710.62
  382      517.087          711
  383      517.523       710.66
  384      517.959        709.9
  385      518.395        709.4
  386      518.831       708.74
  387      519.267       708.12
  388      519.702       707.64
  389      520.138       707.44
  390      520.574       706.92
  391      521.009       706.36
  392      521.444       706.38
  393       521.88       707.06
  394      522.315       707.58
  395       522.75       708.06
  396      523.185        708.5
  397       523.62       708.52
  398      524.055       708.14
  399       524.49       708.02
  400      524.924       708.14
  401      525.359       708.28
  402      525.794       708.44
  403      526.228       709.56
  404      526.662       710.94
  405      527.097       711.44
  406      527.531       711.54
  407      527.965       711.46
  408      528.399       710.54
  409      528.833        709.3
  410      529.267        708.7
  411        529.7       708.32
  412      530.134       707.96
  413      530.568       707.92
  414      531.001       708.32
  415      531.434       708.92
  416      531.868       709.62
  417      532.301       710.48
  418      532.734       711.28
  419      533.167       711.42
  420        533.6       711.76
  421      534.033       712.56
  422      534.466       713.48
  423      534.898       714.22
  424      535.331       714.92
  425      535.763       715.16
  426      536.196       714.74
  427      536.628       714.18
  428       537.06       714.02
  429      537.493       714.18
  430      537.925       714.64
  431      538.357        715.2
  432      538.788       715.64
  433       539.22       715.88
  434      539.652       716.14
  435      540.084       716.26
  436      540.515       716.14
  437      540.947       715.72
  438      541.378       715.06
  439      541.809       714.36
  440       542.24       713.92
  441      542.672       714.26
  442      543.103        714.6
  443      543.533       714.82
  444      543.964       715.12
  445      544.395       715.26
  446      544.826        714.8
  447      545.256       714.34
  448      545.687          714
  449      546.117       713.94
  450      546.547       714.04
  451      546.978       714.38
  452      547.408       714.78
  453      547.838       715.06
  454      548.268       715.34
  455      548.698       716.08
  456      549.127        717.1
  457      549.557       718.04
  458      549.987       718.76
  459      550.416       719.12
  460      550.846       718.46
  461      551.275        717.4
  462      551.704       716.38
  463      552.133       715.52
  464      552.562       714.64
  465      552.991       714.32
  466       553.42       714.54
  467      553.849       715.44
  468      554.278        716.4
  469      554.706       717.74
  470      555.135       719.28
  471      555.563       719.98
  472      555.991       720.16
  473       556.42       720.58
  474      556.848       720.64
  475      557.276       719.88
  476      557.704       719.54
  477      558.132       719.38
  478       558.56       719.38
  479      558.987        719.5
  480      559.415       719.78
  481      559.843       720.04
  482       560.27       720.38
  483      560.697       720.08
  484      561.125       719.38
  485      561.552       719.28
  486      561.979       719.58
  487      562.406       720.08
  488      562.833       720.96
  489       563.26        721.8
  490      563.686        722.3
  491      564.113       722.54
  492       564.54       722.68
  493      564.966       723.04
  494      565.392        723.6
  495      565.819       724.12
  496      566.245       724.78
  497      566.671       725.46
  498      567.097       726.06
  499      567.523       726.52
  500      567.949       726.66
  501      568.374       726.88
  502        568.8       726.92
  503      569.226        726.8
  504      569.651        726.8
  505      570.077        727.2
  506      570.502        726.7
  507      570.927       726.18
  508      571.352       726.54
  509      571.777        727.1
  510      572.202       727.86
  511      572.627       729.24
  512      573.052        730.5
  513      573.476       731.22
  514      573.901       731.56
  515      574.325       731.24
  516       574.75          731
  517      575.174       731.38
  518      575.598       731.86
  519      576.022       732.54
  520      576.446       733.58
  521       576.87        734.6
  522      577.294       735.08
  523      577.718        735.6
  524      578.142       736.42
  525      578.565       736.92
  526      578.989        737.2
  527      579.412       737.92
  528      579.835        737.9
  529      580.259       736.74
  530      580.682          736
  531      581.105       736.02
  532      581.528       735.72
  533      581.951       735.46
  534      582.373        735.7
  535      582.796       736.04
  536      583.219        736.3
  537      583.641       736.82
  538      584.063       737.94
  539      584.486       739.54
  540      584.908       740.74
  541       585.33        741.3
  542      585.752       741.24
  543      586.174        741.2
  544      586.596       741.14
  545      587.018        740.8
  546      587.439       740.82
  547      587.861       741.42
  548      588.282        741.6
  549      588.704       741.52
  550      589.125       742.22
  551      589.546        742.8
  552      589.967        742.6
  553      590.388       742.16
  554      590.809       742.24
  555       591.23       742.32
  556      591.651       742.68
  557      592.071        743.9
  558      592.492       745.74
  559      592.912       747.36
  560      593.333       748.14
  561      593.753       748.22
  562      594.173       747.98
  563      594.593       747.36
  564      595.013       746.78
  565      595.433       746.66
  566      595.853       747.26
  567      596.273       748.12
  568      596.693       748.68
  569      597.112       748.78
  570      597.532        749.1
  571      597.951        748.6
  572       598.37       747.78
  573      598.789        747.5
  574      599.208       747.62
  575      599.627       747.82
  576      600.046        748.4
  577      600.465       748.62
  578      600.884       748.34
  579      601.303       747.68
  580      601.721       746.48
  581      602.139       745.56
  582      602.558        745.6
  583      602.976       746.14
  584      603.394        747.2
  585      603.812       748.58
  586       604.23       749.54
  587      604.648       749.74
  588      605.066       749.34
  589      605.484        748.5
  590      605.901       747.36
  591      606.319       746.06
  592      606.736       744.84
  593      607.154       744.12
  594      607.571       743.64
  595      607.988        743.4
  596      608.405       743.46
  597      608.822        743.3
  598      609.239       742.66
  599      609.656       742.06
  600      610.072        741.4
  601      610.489       740.56
  602      610.905       739.78
  603      611.322       739.06
  604      611.738       737.74
  605      612.154       736.28
  606       612.57       735.06
  607      612.986       734.46
  608      613.402       734.28
  609      613.818       734.46
  610      614.234       734.66
