scansci Spectrometer Data File
--- Measurement Setting ---
Type: Sample Spectrum
Date: Mon Oct 16 16:46:10 2023
User: (Reserved by scansci)
Serial: (Reserved by scansci)
Channel: No. 11
Integration Time: 1
Average: 10
Boxcar: 2
Electrical Dark: No-corrected
Time Normalize: (Reserved by scansci)
Dual-beam: (Reserved by scansci)
Reference Ch: (Reserved by scansci)
--- Measurement Data ---
Pixel   Wavelength   Intensity
    0        162.5      580.367
    1      162.985       580.45
    2      163.469       580.62
    3      163.954       580.96
    4      164.439       580.64
    5      164.923        580.7
    6      165.408       580.98
    7      165.892       580.82
    8      166.377       580.58
    9      166.861       580.78
   10      167.345       580.68
   11       167.83        579.7
   12      168.314       578.68
   13      168.798       577.82
   14      169.282       577.06
   15      169.766        576.7
   16       170.25        577.3
   17      170.734       578.02
   18      171.218       578.58
   19      171.702       579.04
   20      172.185       579.32
   21      172.669       579.36
   22      173.153        579.3
   23      173.636       579.54
   24       174.12        579.9
   25      174.603       579.64
   26      175.087          579
   27       175.57       578.58
   28      176.053       577.86
   29      176.537       576.66
   30       177.02       576.34
   31      177.503       576.62
   32      177.986       576.72
   33      178.469       576.54
   34      178.952          577
   35      179.435       577.78
   36      179.918       578.12
   37      180.401       578.56
   38      180.884       579.76
   39      181.366       580.86
   40      181.849       580.74
   41      182.332       580.36
   42      182.814       580.06
   43      183.297       579.46
   44      183.779       578.36
   45      184.262       577.64
   46      184.744       577.82
   47      185.226       578.52
   48      185.708       579.28
   49      186.191       580.26
   50      186.673       581.08
   51      187.155       581.88
   52      187.637        582.3
   53      188.119       582.14
   54        188.6       581.32
   55      189.082       580.52
   56      189.564       579.46
   57      190.046       578.38
   58      190.527       577.76
   59      191.009       577.84
   60      191.491       578.16
   61      191.972       578.52
   62      192.454       579.16
   63      192.935       580.06
   64      193.416       581.12
   65      193.897       582.06
   66      194.379       582.54
   67       194.86       582.24
   68      195.341       581.62
   69      195.822       580.98
   70      196.303       579.96
   71      196.784       578.92
   72      197.265       578.42
   73      197.746       577.64
   74      198.226       576.78
   75      198.707       576.78
   76      199.188       577.32
   77      199.668        578.1
   78      200.149        579.2
   79      200.629       579.88
   80       201.11       580.28
   81       201.59        580.5
   82       202.07       580.62
   83       202.55       580.68
   84      203.031       580.36
   85      203.511       579.94
   86      203.991       579.86
   87      204.471       579.62
   88      204.951          579
   89      205.431       578.72
   90       205.91       578.42
   91       206.39       577.94
   92       206.87       577.72
   93      207.349       578.22
   94      207.829       578.92
   95      208.309        579.6
   96      208.788       580.48
   97      209.267       581.18
   98      209.747        581.6
   99      210.226       581.46
  100      210.705       581.28
  101      211.185       580.68
  102      211.664        579.6
  103      212.143       578.86
  104      212.622          579
  105      213.101       578.86
  106      213.579       578.86
  107      214.058        579.4
  108      214.537        579.2
  109      215.016        578.8
  110      215.494       579.26
  111      215.973        580.1
  112      216.452        581.2
  113       216.93       582.64
  114      217.408        583.6
  115      217.887       583.84
  116      218.365       583.66
  117      218.843       583.12
  118      219.321        582.7
  119      219.799       582.48
  120      220.278       582.32
  121      220.755       581.88
  122      221.233       581.22
  123      221.711       580.42
  124      222.189       579.68
  125      222.667        579.3
  126      223.144       579.66
  127      223.622       580.28
  128        224.1        580.7
  129      224.577       581.32
  130      225.055       581.86
  131      225.532       581.88
  132      226.009       581.94
  133      226.486       582.18
  134      226.964       582.14
  135      227.441       581.22
  136      227.918          580
  137      228.395       578.92
  138      228.872       578.44
  139      229.349       578.32
  140      229.826       578.76
  141      230.302       579.36
  142      230.779       579.82
  143      231.256       580.06
  144      231.732       580.58
  145      232.209       581.28
  146      232.685       581.36
  147      233.162        581.2
  148      233.638       581.56
  149      234.114       581.68
  150       234.59       581.38
  151      235.066       581.58
  152      235.543        581.9
  153      236.019        581.5
  154      236.495       581.74
  155       236.97       582.32
  156      237.446       583.14
  157      237.922        584.2
  158      238.398       585.66
  159      238.873          586
  160      239.349       585.86
  161      239.824       585.34
  162        240.3       584.02
  163      240.775        582.2
  164      241.251        580.5
  165      241.726       579.76
  166      242.201        579.7
  167      242.676       579.74
  168      243.151       579.54
  169      243.626       579.88
  170      244.101        580.4
  171      244.576       580.86
  172      245.051       581.86
  173      245.526       583.16
  174          246       584.08
  175      246.475        584.2
  176       246.95       584.26
  177      247.424       584.46
  178      247.899       584.82
  179      248.373       585.58
  180      248.847       586.54
  181      249.321          587
  182      249.796       586.76
  183       250.27       586.18
  184      250.744       585.04
  185      251.218       583.82
  186      251.692       582.94
  187      252.166       582.54
  188      252.639       582.38
  189      253.113        582.5
  190      253.587       582.92
  191       254.06       583.46
  192      254.534       583.82
  193      255.007       583.98
  194      255.481          584
  195      255.954       583.98
  196      256.427       583.76
  197      256.901          583
  198      257.374       582.32
  199      257.847       582.04
  200       258.32        582.3
  201      258.793       582.96
  202      259.266          584
  203      259.739       584.88
  204      260.211       585.56
  205      260.684       585.72
  206      261.157       585.72
  207      261.629       585.86
  208      262.102       586.16
  209      262.574       586.82
  210      263.046        587.1
  211      263.519       586.92
  212      263.991       586.56
  213      264.463       586.26
  214      264.935       585.72
  215      265.407       585.18
  216      265.879       584.58
  217      266.351       584.48
  218      266.823       584.88
  219      267.295       585.28
  220      267.766       585.86
  221      268.238       586.36
  222       268.71       586.48
  223      269.181       585.86
  224      269.653       584.82
  225      270.124       584.14
  226      270.595        584.3
  227      271.066       584.72
  228      271.538       584.64
  229      272.009       584.68
  230       272.48       584.36
  231      272.951       583.32
  232      273.422       582.22
  233      273.892       582.06
  234      274.363       582.28
  235      274.834        582.7
  236      275.305        583.6
  237      275.775        584.5
  238      276.246       584.92
  239      276.716       585.16
  240      277.186       585.56
  241      277.657       585.64
  242      278.127       585.78
  243      278.597       586.64
  244      279.067       587.52
  245      279.537       587.92
  246      280.007       588.16
  247      280.477       588.24
  248      280.947        587.4
  249      281.417       586.12
  250      281.886       585.66
  251      282.356       585.88
  252      282.825       585.48
  253      283.295        585.2
  254      283.764       585.84
  255      284.234       585.88
  256      284.703       585.28
  257      285.172       585.22
  258      285.641        585.4
  259       286.11       585.44
  260      286.579       585.22
  261      287.048       584.84
  262      287.517       584.78
  263      287.986       584.76
  264      288.454       584.18
  265      288.923       584.02
  266      289.392        584.5
  267       289.86       584.78
  268      290.329       585.08
  269      290.797       585.78
  270      291.265       586.52
  271      291.734       586.36
  272      292.202       586.08
  273       292.67       586.22
  274      293.138        585.9
  275      293.606       584.94
  276      294.074       584.66
  277      294.541       584.44
  278      295.009        583.7
  279      295.477       583.28
  280      295.944       583.06
  281      296.412       582.64
  282      296.879       582.14
  283      297.347       581.94
  284      297.814       581.44
  285      298.281       581.16
  286      298.749       580.84
  287      299.216       580.56
  288      299.683        580.2
  289       300.15       580.08
  290      300.616       579.92
  291      301.083       580.24
  292       301.55       581.72
  293      302.017        583.1
  294      302.483       583.64
  295       302.95        583.6
  296      303.416       583.22
  297      303.883       582.24
  298      304.349       581.44
  299      304.815       581.48
  300      305.281       582.24
  301      305.748       582.92
  302      306.214       583.28
  303       306.68       583.62
  304      307.146          584
  305      307.611       584.24
  306      308.077        584.1
  307      308.543       583.56
  308      309.008       583.08
  309      309.474       582.62
  310      309.939       582.12
  311      310.405       581.82
  312       310.87       581.74
  313      311.335       581.16
  314        311.8        580.2
  315      312.266       579.22
  316      312.731       578.78
  317      313.196       578.56
  318       313.66        578.9
  319      314.125       579.72
  320       314.59       580.12
  321      315.055       580.02
  322      315.519       579.86
  323      315.984       579.24
  324      316.448       578.36
  325      316.913       578.04
  326      317.377       578.14
  327      317.841       578.64
  328      318.305       579.52
  329      318.769        580.1
  330      319.233       580.16
  331      319.697       580.14
  332      320.161       579.82
  333      320.625       579.58
  334      321.089       579.68
  335      321.552        580.5
  336      322.016       581.64
  337      322.479       582.02
  338      322.943       581.48
  339      323.406       580.84
  340      323.869       580.14
  341      324.333        579.2
  342      324.796       579.04
  343      325.259       579.16
  344      325.722        578.7
  345      326.185       577.66
  346      326.647       576.22
  347       327.11        574.6
  348      327.573          574
  349      328.035       574.62
  350      328.498       575.84
  351       328.96       577.24
  352      329.423       578.78
  353      329.885       579.66
  354      330.347       580.12
  355       330.81       580.48
  356      331.272       580.98
  357      331.734        581.5
  358      332.196       581.58
  359      332.657       581.04
  360      333.119       580.88
  361      333.581       580.62
  362      334.043       579.68
  363      334.504        579.5
  364      334.966        579.7
  365      335.427       578.84
  366      335.888       578.04
  367       336.35       578.16
  368      336.811       577.92
  369      337.272        577.5
  370      337.733       577.46
  371      338.194       577.54
  372      338.655       577.38
  373      339.115       577.52
  374      339.576       577.78
  375      340.037       578.16
  376      340.497       578.66
  377      340.958       578.96
  378      341.418       578.76
  379      341.879       578.58
  380      342.339       578.64
  381      342.799       578.46
  382      343.259       577.98
  383      343.719       577.58
  384      344.179       577.38
  385      344.639       576.82
  386      345.099          576
  387      345.559       575.66
  388      346.018        575.4
  389      346.478       575.26
  390      346.937       575.48
  391      347.397        575.8
  392      347.856        575.9
  393      348.315       576.06
  394      348.774       576.12
  395      349.234       576.16
  396      349.693       576.58
  397      350.152          577
  398       350.61       577.04
  399      351.069        576.8
  400      351.528        576.2
  401      351.987       575.22
  402      352.445       574.28
  403      352.904       573.58
  404      353.362        573.2
  405       353.82       573.64
  406      354.279       574.12
  407      354.737       574.34
  408      355.195       574.58
  409      355.653       574.58
  410      356.111       573.96
  411      356.569       573.48
  412      357.027       573.32
  413      357.484       573.42
  414      357.942       573.98
  415      358.399       575.14
  416      358.857        576.8
  417      359.314       578.24
  418      359.772       578.86
  419      360.229       578.84
  420      360.686       577.94
  421      361.143       576.36
  422        361.6       574.84
  423      362.057       574.22
  424      362.514       574.24
  425      362.971       574.66
  426      363.427       574.98
  427      363.884        575.4
  428       364.34       575.74
  429      364.797       575.76
  430      365.253        575.7
  431      365.709       575.64
  432      366.166       575.56
  433      366.622       575.48
  434      367.078       575.28
  435      367.534       574.94
  436       367.99        574.5
  437      368.445        574.2
  438      368.901       574.62
  439      369.357        575.2
  440      369.812       575.62
  441      370.268       576.66
  442      370.723       577.52
  443      371.179       577.28
  444      371.634       577.04
  445      372.089       577.08
  446      372.544       576.88
  447      372.999       576.88
  448      373.454       577.14
  449      373.909       576.96
  450      374.364        576.5
  451      374.818       576.28
  452      375.273       576.58
  453      375.727       576.44
  454      376.182       576.28
  455      376.636       576.54
  456       377.09       576.38
  457      377.545       575.48
  458      377.999       575.04
  459      378.453       575.12
  460      378.907        575.2
  461      379.361       575.64
  462      379.814       576.38
  463      380.268       576.92
  464      380.722       576.88
  465      381.175        575.9
  466      381.629       574.46
  467      382.082       573.36
  468      382.535       573.02
  469      382.989       573.66
  470      383.442       575.52
  471      383.895       577.54
  472      384.348       578.76
  473      384.801        579.6
  474      385.253       579.64
  475      385.706        579.1
  476      386.159       579.34
  477      386.611        580.2
  478      387.064       580.58
  479      387.516        580.9
  480      387.968       581.34
  481      388.421       581.14
  482      388.873        580.4
  483      389.325       580.16
  484      389.777       580.08
  485      390.229       579.54
  486      390.681       578.82
  487      391.132        577.9
  488      391.584        576.9
  489      392.035        576.7
  490      392.487       577.22
  491      392.938       578.36
  492       393.39       579.92
  493      393.841       581.02
  494      394.292        581.1
  495      394.743        580.7
  496      395.194       578.96
  497      395.645       576.98
  498      396.096        575.2
  499      396.546       573.62
  500      396.997       572.44
  501      397.448       572.68
  502      397.898        573.5
  503      398.349       574.12
  504      398.799        574.9
  505      399.249       575.36
  506      399.699        575.7
  507      400.149       575.86
  508      400.599       575.82
  509      401.049        575.4
  510      401.499        575.4
  511      401.949       575.22
  512      402.398          575
  513      402.848       575.36
  514      403.297       576.14
  515      403.747       576.94
  516      404.196       577.28
  517      404.645       577.52
  518      405.094        578.1
  519      405.543       579.12
  520      405.992       580.02
  521      406.441        580.9
  522       406.89        581.6
  523      407.339        581.6
  524      407.787       581.34
  525      408.236       581.04
  526      408.684        581.1
  527      409.132       581.28
  528      409.581       581.42
  529      410.029       581.32
  530      410.477       581.22
  531      410.925       580.88
  532      411.373       580.56
  533      411.821       580.68
  534      412.269          581
  535      412.716       581.16
  536      413.164       581.38
  537      413.611       581.52
  538      414.059       581.98
  539      414.506       582.38
  540      414.953       582.56
  541        415.4       582.52
  542      415.847        582.7
  543      416.294       582.64
  544      416.741        582.3
  545      417.188       582.48
  546      417.635       583.08
  547      418.081        583.9
  548      418.528       584.86
  549      418.974       585.68
  550      419.421       585.82
  551      419.867        585.5
  552      420.313       585.26
  553      420.759       585.68
  554      421.205       586.88
  555      421.651       587.94
  556      422.097       588.58
  557      422.543       588.98
  558      422.989       588.98
  559      423.434       588.56
  560       423.88       588.92
  561      424.325       590.16
  562       424.77       591.34
  563      425.216       592.68
  564      425.661       593.92
  565      426.106       594.54
  566      426.551       595.22
  567      426.996       596.06
  568       427.44        596.3
  569      427.885       596.46
  570       428.33       596.52
  571      428.774       596.84
  572      429.219       597.36
  573      429.663       597.62
  574      430.107       598.28
  575      430.551       600.02
  576      430.996       601.96
  577       431.44       604.18
  578      431.883       607.32
  579      432.327        610.8
  580      432.771       614.26
  581      433.215       617.66
  582      433.658        621.6
  583      434.102       626.52
  584      434.545       631.52
  585      434.988       636.26
  586      435.431       641.08
  587      435.875        645.6
  588      436.318       649.82
  589      436.761       654.78
  590      437.203          660
  591      437.646       664.48
  592      438.089       668.16
  593      438.531       671.14
  594      438.974       674.04
  595      439.416       677.26
  596      439.859       680.48
  597      440.301       683.62
  598      440.743       686.44
  599      441.185       688.12
  600      441.627       690.06
  601      442.069       692.74
  602       442.51       694.54
  603      442.952       695.06
  604      443.394       695.46
  605      443.835       694.98
  606      444.277       693.78
  607      444.718       693.34
  608      445.159       693.94
  609        445.6       694.82
  610      446.041       696.14
