scansci Spectrometer Data File
--- Measurement Setting ---
Type: Sample Spectrum
Date: Mon Oct 16 16:34:34 2023
User: (Reserved by scansci)
Serial: (Reserved by scansci)
Channel: No. 11
Integration Time: 1
Average: 10
Boxcar: 2
Electrical Dark: No-corrected
Time Normalize: (Reserved by scansci)
Dual-beam: (Reserved by scansci)
Reference Ch: (Reserved by scansci)
--- Measurement Data ---
Pixel   Wavelength   Intensity
    0        162.5      619.133
    1      162.985        619.5
    2      163.469       619.66
    3      163.954       620.66
    4      164.439        620.8
    5      164.923       620.06
    6      165.408       619.06
    7      165.892       618.42
    8      166.377       617.96
    9      166.861       617.42
   10      167.345       617.48
   11       167.83       618.08
   12      168.314       618.48
   13      168.798       618.24
   14      169.282       617.96
   15      169.766       617.66
   16       170.25       617.12
   17      170.734        616.4
   18      171.218       616.14
   19      171.702        616.4
   20      172.185        616.8
   21      172.669        617.6
   22      173.153       618.48
   23      173.636       619.28
   24       174.12       619.98
   25      174.603       620.76
   26      175.087        621.5
   27       175.57       622.04
   28      176.053       622.18
   29      176.537        622.1
   30       177.02       622.26
   31      177.503       622.46
   32      177.986       623.02
   33      178.469       624.14
   34      178.952        625.4
   35      179.435       626.82
   36      179.918        628.6
   37      180.401       630.02
   38      180.884       630.46
   39      181.366        630.7
   40      181.849       630.36
   41      182.332       629.24
   42      182.814       628.28
   43      183.297       627.78
   44      183.779       627.26
   45      184.262       627.16
   46      184.744       627.14
   47      185.226       626.94
   48      185.708       627.14
   49      186.191       627.54
   50      186.673       627.66
   51      187.155        628.2
   52      187.637       629.04
   53      188.119       629.52
   54        188.6        629.9
   55      189.082       630.26
   56      189.564       630.42
   57      190.046       630.26
   58      190.527        630.3
   59      191.009       630.66
   60      191.491       630.82
   61      191.972       630.62
   62      192.454       630.66
   63      192.935       630.98
   64      193.416       631.52
   65      193.897       631.84
   66      194.379       632.04
   67       194.86        632.3
   68      195.341        632.3
   69      195.822       632.12
   70      196.303       632.64
   71      196.784       633.14
   72      197.265       633.14
   73      197.746          633
   74      198.226       632.54
   75      198.707          632
   76      199.188       632.46
   77      199.668       633.26
   78      200.149       633.34
   79      200.629       633.44
   80       201.11       633.24
   81       201.59        632.5
   82       202.07       632.02
   83       202.55       632.32
   84      203.031        632.4
   85      203.511       632.56
   86      203.991       632.54
   87      204.471       632.26
   88      204.951       631.94
   89      205.431       631.98
   90       205.91        632.3
   91       206.39       632.52
   92       206.87       632.26
   93      207.349       631.76
   94      207.829        631.6
   95      208.309       631.12
   96      208.788        630.6
   97      209.267        630.5
   98      209.747       630.58
   99      210.226       630.06
  100      210.705       629.64
  101      211.185       629.02
  102      211.664       628.04
  103      212.143       627.08
  104      212.622        626.3
  105      213.101       626.08
  106      213.579       626.38
  107      214.058       626.68
  108      214.537        627.1
  109      215.016       628.02
  110      215.494       628.66
  111      215.973        629.1
  112      216.452       629.84
  113       216.93       630.82
  114      217.408       631.08
  115      217.887        630.7
  116      218.365       629.98
  117      218.843       629.18
  118      219.321       628.12
  119      219.799       627.64
  120      220.278       627.88
  121      220.755        628.5
  122      221.233       628.86
  123      221.711       629.14
  124      222.189       629.66
  125      222.667        629.7
  126      223.144        629.4
  127      223.622       629.64
  128        224.1       629.82
  129      224.577       629.08
  130      225.055        628.2
  131      225.532       627.88
  132      226.009       627.08
  133      226.486       626.26
  134      226.964       625.94
  135      227.441       626.38
  136      227.918       626.88
  137      228.395       627.72
  138      228.872       628.54
  139      229.349       629.46
  140      229.826        629.9
  141      230.302        630.3
  142      230.779       630.72
  143      231.256       630.72
  144      231.732        629.9
  145      232.209       628.78
  146      232.685       627.62
  147      233.162       626.38
  148      233.638       625.62
  149      234.114       625.64
  150       234.59       626.24
  151      235.066       626.56
  152      235.543       627.14
  153      236.019        627.8
  154      236.495       627.82
  155       236.97        627.4
  156      237.446       627.26
  157      237.922       627.34
  158      238.398       627.26
  159      238.873        627.6
  160      239.349       628.22
  161      239.824       628.42
  162        240.3          628
  163      240.775       627.82
  164      241.251       627.68
  165      241.726       627.64
  166      242.201       627.92
  167      242.676       628.34
  168      243.151       628.88
  169      243.626        629.5
  170      244.101       629.74
  171      244.576       629.28
  172      245.051       628.68
  173      245.526       628.08
  174          246        627.3
  175      246.475       626.46
  176       246.95       626.26
  177      247.424       627.14
  178      247.899       628.12
  179      248.373        628.8
  180      248.847       629.36
  181      249.321        629.7
  182      249.796       629.26
  183       250.27       628.46
  184      250.744       627.76
  185      251.218       627.28
  186      251.692       627.34
  187      252.166       627.34
  188      252.639       627.14
  189      253.113       627.02
  190      253.587       626.98
  191       254.06       626.14
  192      254.534       625.32
  193      255.007          625
  194      255.481       625.04
  195      255.954       625.06
  196      256.427       625.28
  197      256.901       625.28
  198      257.374        625.1
  199      257.847       625.14
  200       258.32       624.82
  201      258.793       624.42
  202      259.266       624.36
  203      259.739       624.52
  204      260.211       624.14
  205      260.684       624.12
  206      261.157       624.46
  207      261.629       625.02
  208      262.102       625.48
  209      262.574       626.08
  210      263.046        626.6
  211      263.519        626.7
  212      263.991        626.3
  213      264.463       625.88
  214      264.935       625.36
  215      265.407       624.96
  216      265.879        625.2
  217      266.351        625.7
  218      266.823        625.8
  219      267.295       625.92
  220      267.766        626.2
  221      268.238       626.26
  222       268.71       626.38
  223      269.181        627.1
  224      269.653       627.68
  225      270.124       627.66
  226      270.595        627.5
  227      271.066       626.88
  228      271.538       625.64
  229      272.009       624.64
  230       272.48       623.66
  231      272.951        622.4
  232      273.422       622.06
  233      273.892       622.32
  234      274.363       622.14
  235      274.834        622.5
  236      275.305       623.86
  237      275.775       624.84
  238      276.246       625.06
  239      276.716       625.48
  240      277.186       625.94
  241      277.657       626.06
  242      278.127       625.64
  243      278.597        625.2
  244      279.067       624.88
  245      279.537       624.12
  246      280.007        622.9
  247      280.477       622.24
  248      280.947        622.4
  249      281.417       622.82
  250      281.886       623.34
  251      282.356       623.86
  252      282.825       624.16
  253      283.295       624.14
  254      283.764          624
  255      284.234       623.94
  256      284.703       624.04
  257      285.172          624
  258      285.641       623.54
  259       286.11        622.9
  260      286.579       622.88
  261      287.048       623.04
  262      287.517       623.28
  263      287.986       623.16
  264      288.454        622.6
  265      288.923        621.4
  266      289.392       620.18
  267       289.86        619.1
  268      290.329       619.12
  269      290.797       619.84
  270      291.265       620.68
  271      291.734        621.5
  272      292.202        622.5
  273       292.67        623.3
  274      293.138       623.82
  275      293.606       624.24
  276      294.074       624.54
  277      294.541       624.78
  278      295.009       625.28
  279      295.477       625.96
  280      295.944       626.24
  281      296.412       626.28
  282      296.879        626.1
  283      297.347       625.62
  284      297.814        625.1
  285      298.281       624.76
  286      298.749       624.38
  287      299.216       623.58
  288      299.683        622.2
  289       300.15       620.64
  290      300.616        619.7
  291      301.083          620
  292       301.55       621.42
  293      302.017       623.02
  294      302.483       624.38
  295       302.95       625.12
  296      303.416       625.26
  297      303.883        625.1
  298      304.349       624.86
  299      304.815        624.4
  300      305.281       624.08
  301      305.748        623.2
  302      306.214       621.66
  303       306.68       620.76
  304      307.146       621.02
  305      307.611        621.8
  306      308.077       622.52
  307      308.543       623.26
  308      309.008       623.54
  309      309.474       623.34
  310      309.939       622.64
  311      310.405       621.86
  312       310.87        621.4
  313      311.335       621.02
  314        311.8       620.62
  315      312.266        620.5
  316      312.731       621.08
  317      313.196       621.94
  318       313.66          623
  319      314.125       624.04
  320       314.59       624.72
  321      315.055       625.14
  322      315.519       625.04
  323      315.984       624.82
  324      316.448       624.88
  325      316.913        625.2
  326      317.377       625.42
  327      317.841        625.9
  328      318.305       626.26
  329      318.769          626
  330      319.233       625.44
  331      319.697       624.94
  332      320.161       624.28
  333      320.625       623.52
  334      321.089       622.92
  335      321.552       622.82
  336      322.016          623
  337      322.479       623.18
  338      322.943       623.74
  339      323.406       624.24
  340      323.869       623.96
  341      324.333       623.46
  342      324.796       623.02
  343      325.259        622.4
  344      325.722        622.2
  345      326.185       622.66
  346      326.647       623.22
  347       327.11       623.82
  348      327.573       624.58
  349      328.035       624.94
  350      328.498       624.62
  351       328.96       623.74
  352      329.423       623.28
  353      329.885       623.02
  354      330.347        622.3
  355       330.81       621.94
  356      331.272        622.2
  357      331.734       622.22
  358      332.196       621.86
  359      332.657       621.96
  360      333.119       622.22
  361      333.581       622.42
  362      334.043        622.5
  363      334.504        622.5
  364      334.966       622.74
  365      335.427       622.74
  366      335.888       622.26
  367       336.35       622.06
  368      336.811        622.1
  369      337.272        621.9
  370      337.733       621.64
  371      338.194       621.38
  372      338.655       620.88
  373      339.115       620.32
  374      339.576       619.96
  375      340.037       620.42
  376      340.497       620.92
  377      340.958        620.9
  378      341.418       620.94
  379      341.879       621.36
  380      342.339       621.58
  381      342.799       622.34
  382      343.259        623.8
  383      343.719       625.14
  384      344.179       625.82
  385      344.639       625.94
  386      345.099       625.76
  387      345.559       625.14
  388      346.018       624.08
  389      346.478       622.82
  390      346.937       621.82
  391      347.397        621.3
  392      347.856        620.7
  393      348.315        620.4
  394      348.774       620.46
  395      349.234       620.52
  396      349.693       620.28
  397      350.152       620.12
  398       350.61       620.22
  399      351.069        620.2
  400      351.528       619.76
  401      351.987       619.32
  402      352.445        619.6
  403      352.904       620.06
  404      353.362       620.36
  405       353.82       620.92
  406      354.279        621.3
  407      354.737       620.42
  408      355.195       619.34
  409      355.653       619.16
  410      356.111       618.96
  411      356.569       618.64
  412      357.027       618.72
  413      357.484        618.5
  414      357.942        617.9
  415      358.399        617.5
  416      358.857       617.32
  417      359.314       617.44
  418      359.772       617.62
  419      360.229       617.34
  420      360.686       616.96
  421      361.143       616.96
  422        361.6       617.66
  423      362.057       618.66
  424      362.514       619.46
  425      362.971       619.92
  426      363.427       620.06
  427      363.884       620.04
  428       364.34       619.98
  429      364.797       620.06
  430      365.253       620.54
  431      365.709       620.94
  432      366.166       620.56
  433      366.622       619.98
  434      367.078       619.92
  435      367.534        619.6
  436       367.99       619.26
  437      368.445       619.54
  438      368.901       620.18
  439      369.357        620.3
  440      369.812       620.14
  441      370.268       619.48
  442      370.723       618.28
  443      371.179        617.3
  444      371.634       617.04
  445      372.089       617.24
  446      372.544        617.5
  447      372.999       617.74
  448      373.454       617.58
  449      373.909       616.76
  450      374.364       615.48
  451      374.818       614.56
  452      375.273       614.04
  453      375.727       613.94
  454      376.182       614.86
  455      376.636        616.4
  456       377.09       617.58
  457      377.545       618.26
  458      377.999       618.42
  459      378.453       618.22
  460      378.907       617.72
  461      379.361       617.58
  462      379.814       617.82
  463      380.268        618.3
  464      380.722        618.5
  465      381.175        618.5
  466      381.629       618.58
  467      382.082       618.84
  468      382.535       618.84
  469      382.989       618.68
  470      383.442       618.94
  471      383.895       619.28
  472      384.348       619.06
  473      384.801       618.46
  474      385.253       618.44
  475      385.706       618.32
  476      386.159        617.7
  477      386.611       617.16
  478      387.064       616.94
  479      387.516        616.1
  480      387.968       615.28
  481      388.421       615.26
  482      388.873       615.78
  483      389.325        616.6
  484      389.777       617.68
  485      390.229       618.86
  486      390.681        619.3
  487      391.132        619.1
  488      391.584       618.74
  489      392.035       618.36
  490      392.487       618.14
  491      392.938       618.32
  492       393.39       618.78
  493      393.841       619.42
  494      394.292        619.7
  495      394.743       619.42
  496      395.194        618.9
  497      395.645        618.3
  498      396.096       617.68
  499      396.546       617.62
  500      396.997       617.94
  501      397.448       618.74
  502      397.898       619.84
  503      398.349        620.9
  504      398.799       621.92
  505      399.249       622.66
  506      399.699       622.82
  507      400.149       622.72
  508      400.599       622.38
  509      401.049       621.92
  510      401.499       621.86
  511      401.949       621.84
  512      402.398       622.06
  513      402.848       622.54
  514      403.297       622.76
  515      403.747        622.8
  516      404.196          623
  517      404.645       622.92
  518      405.094       622.76
  519      405.543       622.68
  520      405.992        622.5
  521      406.441       622.72
  522       406.89       623.58
  523      407.339       624.64
  524      407.787       626.24
  525      408.236       628.04
  526      408.684       629.48
  527      409.132       630.96
  528      409.581        632.7
  529      410.029       633.76
  530      410.477       635.04
  531      410.925       637.44
  532      411.373       639.84
  533      411.821       642.26
  534      412.269       645.82
  535      412.716       649.56
  536      413.164          652
  537      413.611       654.36
  538      414.059       657.02
  539      414.506          659
  540      414.953        660.1
  541        415.4        661.8
  542      415.847       663.62
  543      416.294       664.94
  544      416.741          666
  545      417.188       667.42
  546      417.635       668.38
  547      418.081       669.26
  548      418.528       669.96
  549      418.974       670.48
  550      419.421        670.8
  551      419.867       670.88
  552      420.313        671.4
  553      420.759       672.86
  554      421.205        675.4
  555      421.651       678.82
  556      422.097       683.04
  557      422.543       687.18
  558      422.989       691.12
  559      423.434       695.98
  560       423.88        701.8
  561      424.325        708.5
  562       424.77       716.12
  563      425.216       724.98
  564      425.661       735.52
  565      426.106       748.06
  566      426.551       762.82
  567      426.996       779.76
  568       427.44       799.02
  569      427.885       819.82
  570       428.33       842.26
  571      428.774        867.4
  572      429.219       895.12
  573      429.663       923.32
  574      430.107       951.52
  575      430.551       978.22
  576      430.996      1000.54
  577       431.44      1017.72
  578      431.883      1030.94
  579      432.327      1039.56
  580      432.771      1042.66
  581      433.215      1040.64
  582      433.658      1034.12
  583      434.102      1024.08
  584      434.545      1010.48
  585      434.988       995.42
  586      435.431       980.34
  587      435.875       965.48
  588      436.318       951.68
  589      436.761       939.94
  590      437.203       930.36
  591      437.646       922.94
  592      438.089       917.84
  593      438.531       914.22
  594      438.974       912.28
  595      439.416       912.66
  596      439.859       915.86
  597      440.301       921.52
  598      440.743       930.12
  599      441.185       942.74
  600      441.627       958.92
  601      442.069       978.56
  602       442.51       1002.2
  603      442.952      1030.06
  604      443.394       1064.2
  605      443.835      1107.88
  606      444.277         1163
  607      444.718      1233.14
  608      445.159       1322.7
  609        445.6      1434.14
  610      446.041       1566.2
