scansci Spectrometer Data File
--- Measurement Setting ---
Type: Sample Spectrum
Date: Mon Oct 16 16:33:57 2023
User: (Reserved by scansci)
Serial: (Reserved by scansci)
Channel: No. 11
Integration Time: 1
Average: 10
Boxcar: 2
Electrical Dark: No-corrected
Time Normalize: (Reserved by scansci)
Dual-beam: (Reserved by scansci)
Reference Ch: (Reserved by scansci)
--- Measurement Data ---
Pixel   Wavelength   Intensity
    0        344.4        652.8
    1      344.867      653.375
    2      345.334       653.42
    3      345.801       653.16
    4      346.268       652.78
    5      346.735       652.08
    6      347.202       650.92
    7      347.669       650.24
    8      348.135       650.42
    9      348.602       650.66
   10      349.068       650.76
   11      349.535        650.5
   12      350.001          650
   13      350.467       649.82
   14      350.933       649.94
   15      351.399        650.1
   16      351.866       650.58
   17      352.331       651.06
   18      352.797       650.54
   19      353.263        649.6
   20      353.729       649.02
   21      354.194       648.68
   22       354.66        648.5
   23      355.126        648.5
   24      355.591       648.64
   25      356.056       648.76
   26      356.522       648.72
   27      356.987       648.88
   28      357.452       649.76
   29      357.917       650.66
   30      358.382       651.38
   31      358.847       651.96
   32      359.312        652.5
   33      359.776        652.9
   34      360.241          653
   35      360.706        652.8
   36       361.17       652.76
   37      361.634       652.32
   38      362.099       650.96
   39      362.563       649.82
   40      363.027       649.06
   41      363.491       648.26
   42      363.955       647.78
   43      364.419       648.14
   44      364.883       648.48
   45      365.347       648.56
   46      365.811        649.1
   47      366.274        649.6
   48      366.738       649.64
   49      367.201       649.52
   50      367.665        649.6
   51      368.128       649.68
   52      368.592       649.92
   53      369.055        650.2
   54      369.518       650.48
   55      369.981       650.86
   56      370.444       650.96
   57      370.907        650.6
   58       371.37       650.36
   59      371.832       649.98
   60      372.295        649.4
   61      372.757       649.04
   62       373.22       648.72
   63      373.682       648.32
   64      374.145       648.54
   65      374.607       648.92
   66      375.069       648.86
   67      375.531       648.82
   68      375.993        649.4
   69      376.455       650.64
   70      376.917       652.14
   71      377.379       653.36
   72      377.841       654.46
   73      378.302       654.92
   74      378.764        654.3
   75      379.225       653.36
   76      379.687       652.66
   77      380.148       651.88
   78      380.609        651.2
   79      381.071       650.94
   80      381.532       650.62
   81      381.993       650.06
   82      382.454       649.32
   83      382.915       648.54
   84      383.375        648.1
   85      383.836       648.34
   86      384.297       649.42
   87      384.757       651.02
   88      385.218       652.28
   89      385.678          653
   90      386.138       653.74
   91      386.599       653.94
   92      387.059       653.92
   93      387.519       654.18
   94      387.979       654.28
   95      388.439       653.52
   96      388.899       652.84
   97      389.358       652.78
   98      389.818        652.8
   99      390.278       652.52
  100      390.737       652.24
  101      391.197       651.84
  102      391.656       651.14
  103      392.115       650.54
  104      392.575        650.5
  105      393.034       650.48
  106      393.493        650.6
  107      393.952        651.1
  108      394.411        651.5
  109       394.87       651.94
  110      395.328       652.46
  111      395.787       652.78
  112      396.246       652.18
  113      396.704       651.36
  114      397.163       650.24
  115      397.621       649.16
  116      398.079       648.38
  117      398.537          648
  118      398.995       647.78
  119      399.454       648.02
  120      399.911       648.56
  121      400.369       648.76
  122      400.827       648.98
  123      401.285        649.9
  124      401.743       650.58
  125        402.2       650.58
  126      402.658       650.64
  127      403.115       651.04
  128      403.572       650.84
  129       404.03       650.24
  130      404.487       650.14
  131      404.944        650.6
  132      405.401       651.36
  133      405.858        652.4
  134      406.315       653.26
  135      406.771       653.92
  136      407.228       653.96
  137      407.685       653.18
  138      408.141       652.18
  139      408.598        651.4
  140      409.054       650.46
  141       409.51       649.86
  142      409.967        649.5
  143      410.423       649.16
  144      410.879       649.32
  145      411.335       649.78
  146      411.791       650.16
  147      412.246        650.5
  148      412.702       650.28
  149      413.158        649.7
  150      413.613       649.44
  151      414.069       649.52
  152      414.524       649.84
  153       414.98       650.44
  154      415.435        651.1
  155       415.89       651.58
  156      416.345       651.58
  157        416.8       651.12
  158      417.255       651.02
  159       417.71       651.22
  160      418.165       651.34
  161      418.619       651.36
  162      419.074       650.84
  163      419.529        650.1
  164      419.983       649.72
  165      420.437       649.46
  166      420.892       649.58
  167      421.346        650.7
  168        421.8       651.64
  169      422.254       651.82
  170      422.708       651.86
  171      423.162       651.52
  172      423.616       650.96
  173       424.07       651.22
  174      424.523          652
  175      424.977       651.98
  176       425.43       651.78
  177      425.884       651.96
  178      426.337       651.56
  179       426.79       650.58
  180      427.243        650.4
  181      427.697       650.58
  182       428.15       650.44
  183      428.602        650.6
  184      429.055       651.14
  185      429.508       651.72
  186      429.961        652.1
  187      430.413       651.88
  188      430.866       650.74
  189      431.318       649.52
  190      431.771       648.84
  191      432.223        648.7
  192      432.675       649.46
  193      433.127       650.64
  194      433.579        651.5
  195      434.031       651.78
  196      434.483        651.5
  197      434.935        650.7
  198      435.387       650.06
  199      435.838       649.78
  200       436.29        649.9
  201      436.741       650.38
  202      437.193        650.8
  203      437.644       651.12
  204      438.095       651.34
  205      438.546       651.16
  206      438.997        650.9
  207      439.448       650.84
  208      439.899       650.86
  209       440.35       651.16
  210      440.801       651.86
  211      441.251       652.72
  212      441.702       653.04
  213      442.152       653.16
  214      442.603       653.34
  215      443.053       653.04
  216      443.503       652.22
  217      443.954       651.42
  218      444.404       650.66
  219      444.854        649.4
  220      445.304       648.26
  221      445.753       647.34
  222      446.203       646.78
  223      446.653       646.34
  224      447.102       646.18
  225      447.552       646.12
  226      448.001       646.26
  227      448.451        646.6
  228        448.9        647.2
  229      449.349        647.7
  230      449.798        648.3
  231      450.247       649.32
  232      450.696        650.4
  233      451.145       650.98
  234      451.594       651.34
  235      452.042       651.14
  236      452.491       650.22
  237      452.939       649.34
  238      453.388       648.92
  239      453.836       648.84
  240      454.285        648.9
  241      454.733        649.1
  242      455.181       649.34
  243      455.629       649.28
  244      456.077        649.3
  245      456.525       649.88
  246      456.972       650.34
  247       457.42       650.52
  248      457.868       650.96
  249      458.315       651.34
  250      458.763       651.38
  251       459.21       651.72
  252      459.657       651.82
  253      460.104       651.66
  254      460.552       651.42
  255      460.999       651.12
  256      461.446       650.86
  257      461.892        651.2
  258      462.339       651.76
  259      462.786       651.76
  260      463.233        651.3
  261      463.679       650.72
  262      464.125        650.2
  263      464.572       649.72
  264      465.018       649.78
  265      465.464        650.4
  266       465.91       650.82
  267      466.356       650.72
  268      466.802       650.98
  269      467.248       651.88
  270      467.694       652.64
  271       468.14       653.24
  272      468.585       654.28
  273      469.031       654.82
  274      469.476       654.12
  275      469.922        653.4
  276      470.367       653.34
  277      470.812       653.14
  278      471.257       653.22
  279      471.702        653.2
  280      472.147       653.12
  281      472.592       652.52
  282      473.037        651.5
  283      473.482       650.24
  284      473.926       649.48
  285      474.371       648.68
  286      474.815       648.42
  287      475.259        648.9
  288      475.704        649.4
  289      476.148       650.12
  290      476.592       651.18
  291      477.036       651.98
  292       477.48       652.08
  293      477.924       651.98
  294      478.368       651.74
  295      478.811        651.5
  296      479.255       651.22
  297      479.698       651.18
  298      480.142        651.1
  299      480.585       651.16
  300      481.028       651.64
  301      481.472        652.2
  302      481.915       652.54
  303      482.358       652.76
  304      482.801       653.12
  305      483.244       652.98
  306      483.686       652.22
  307      484.129       651.62
  308      484.572       651.32
  309      485.014       650.66
  310      485.456       649.64
  311      485.899        649.1
  312      486.341       649.26
  313      486.783       649.98
  314      487.225          651
  315      487.667       652.24
  316      488.109       652.96
  317      488.551       652.72
  318      488.993        652.3
  319      489.434       651.94
  320      489.876       651.46
  321      490.318       651.22
  322      490.759       651.34
  323        491.2       651.18
  324      491.641       650.64
  325      492.083        650.3
  326      492.524       650.62
  327      492.965        650.9
  328      493.406       650.94
  329      493.846       651.38
  330      494.287        651.5
  331      494.728       651.04
  332      495.168       650.88
  333      495.609       650.72
  334      496.049       650.28
  335      496.489       649.96
  336       496.93       649.28
  337       497.37       648.22
  338       497.81       647.66
  339       498.25       647.22
  340       498.69        647.3
  341      499.129       648.56
  342      499.569       649.88
  343      500.009        650.5
  344      500.448       651.24
  345      500.888       651.44
  346      501.327          651
  347      501.766       650.86
  348      502.206       651.04
  349      502.645       651.06
  350      503.084       651.56
  351      503.523       652.24
  352      503.961       652.58
  353        504.4        652.8
  354      504.839          653
  355      505.277        653.1
  356      505.716       652.98
  357      506.154       652.56
  358      506.593       651.84
  359      507.031       650.76
  360      507.469       649.52
  361      507.907       648.74
  362      508.345       648.66
  363      508.783        649.1
  364      509.221        649.7
  365      509.659       650.04
  366      510.096       649.82
  367      510.534        649.5
  368      510.971       649.04
  369      511.409       648.68
  370      511.846        648.6
  371      512.283       648.62
  372       512.72       648.72
  373      513.157       648.62
  374      513.594       647.92
  375      514.031       647.36
  376      514.468       647.08
  377      514.905       646.38
  378      515.341       646.04
  379      515.778       646.76
  380      516.214        647.6
  381       516.65        648.5
  382      517.087       649.26
  383      517.523       649.64
  384      517.959       650.02
  385      518.395       650.28
  386      518.831       650.52
  387      519.267        650.7
  388      519.702       650.84
  389      520.138       650.72
  390      520.574       650.42
  391      521.009       649.94
  392      521.444        649.8
  393       521.88        649.9
  394      522.315       650.08
  395       522.75       649.98
  396      523.185       650.06
  397       523.62       650.14
  398      524.055       649.88
  399       524.49       649.12
  400      524.924       648.88
  401      525.359       648.62
  402      525.794        648.3
  403      526.228       648.72
  404      526.662       649.86
  405      527.097       650.76
  406      527.531       651.32
  407      527.965       651.98
  408      528.399       652.16
  409      528.833        652.2
  410      529.267       652.32
  411        529.7       652.56
  412      530.134        652.4
  413      530.568          652
  414      531.001       651.24
  415      531.434       650.62
  416      531.868       650.04
  417      532.301       649.48
  418      532.734        649.7
  419      533.167       650.08
  420        533.6       650.06
  421      534.033       649.98
  422      534.466       649.94
  423      534.898       649.08
  424      535.331        648.1
  425      535.763       647.48
  426      536.196       647.14
  427      536.628        647.7
  428       537.06       649.22
  429      537.493       650.76
  430      537.925       652.08
  431      538.357       653.12
  432      538.788       653.44
  433       539.22       653.12
  434      539.652        653.1
  435      540.084       653.34
  436      540.515       653.38
  437      540.947       653.58
  438      541.378       653.68
  439      541.809       653.06
  440       542.24       652.56
  441      542.672       652.48
  442      543.103        651.8
  443      543.533        651.2
  444      543.964        651.1
  445      544.395       650.98
  446      544.826       651.18
  447      545.256       651.98
  448      545.687       652.88
  449      546.117        653.4
  450      546.547       653.14
  451      546.978        652.1
  452      547.408       651.04
  453      547.838       650.06
  454      548.268       649.74
  455      548.698       649.98
  456      549.127        650.7
  457      549.557       651.32
  458      549.987       651.64
  459      550.416       651.72
  460      550.846       651.84
  461      551.275        651.5
  462      551.704          651
  463      552.133       650.16
  464      552.562       648.78
  465      552.991       647.88
  466       553.42        647.7
  467      553.849       647.74
  468      554.278       648.72
  469      554.706       650.26
  470      555.135       650.88
  471      555.563          651
  472      555.991       651.28
  473       556.42       651.48
  474      556.848       651.46
  475      557.276       651.86
  476      557.704       652.44
  477      558.132       652.76
  478       558.56       652.78
  479      558.987       652.82
  480      559.415       652.56
  481      559.843       651.92
  482       560.27        651.4
  483      560.697       650.88
  484      561.125       650.38
  485      561.552       650.26
  486      561.979        650.4
  487      562.406       650.52
  488      562.833       650.56
  489       563.26       650.74
  490      563.686       650.98
  491      564.113       651.16
  492       564.54       651.44
  493      564.966       651.54
  494      565.392        651.3
  495      565.819       650.78
  496      566.245       650.68
  497      566.671       650.74
  498      567.097       650.56
  499      567.523       650.44
  500      567.949       650.62
  501      568.374       650.42
  502        568.8       649.74
  503      569.226        649.6
  504      569.651       649.66
  505      570.077        649.4
  506      570.502       649.54
  507      570.927        649.9
  508      571.352       649.88
  509      571.777       649.64
  510      572.202       649.28
  511      572.627       648.38
  512      573.052       647.64
  513      573.476       647.26
  514      573.901        647.2
  515      574.325       647.98
  516       574.75       649.28
  517      575.174       650.14
  518      575.598       651.12
  519      576.022       652.42
  520      576.446       652.74
  521       576.87       652.24
  522      577.294       651.38
  523      577.718       650.12
  524      578.142       648.84
  525      578.565       648.12
  526      578.989       648.16
  527      579.412       649.02
  528      579.835       649.72
  529      580.259       649.92
  530      580.682       650.22
  531      581.105       650.22
  532      581.528       650.14
  533      581.951        650.2
  534      582.373       650.24
  535      582.796        650.3
  536      583.219       650.56
  537      583.641        650.3
  538      584.063       650.16
  539      584.486       650.18
  540      584.908       649.86
  541       585.33       649.54
  542      585.752       649.74
  543      586.174       649.84
  544      586.596       649.94
  545      587.018       650.14
  546      587.439       649.92
  547      587.861       650.06
  548      588.282       650.42
  549      588.704       650.34
  550      589.125       650.22
  551      589.546       650.16
  552      589.967       649.62
  553      590.388       649.18
  554      590.809       649.18
  555       591.23        649.3
  556      591.651       649.56
  557      592.071        650.1
  558      592.492       651.06
  559      592.912       651.68
  560      593.333        651.8
  561      593.753       651.78
  562      594.173       651.22
  563      594.593        650.4
  564      595.013        650.1
  565      595.433       650.16
  566      595.853       650.48
  567      596.273       651.28
  568      596.693       651.62
  569      597.112        651.8
  570      597.532       652.08
  571      597.951        652.3
  572       598.37       652.46
  573      598.789        652.6
  574      599.208       652.72
  575      599.627       653.16
  576      600.046        653.6
  577      600.465       653.52
  578      600.884       653.66
  579      601.303       653.44
  580      601.721       652.72
  581      602.139       652.16
  582      602.558          652
  583      602.976        652.2
  584      603.394       652.88
  585      603.812       653.38
  586       604.23        653.7
  587      604.648       654.22
  588      605.066       654.68
  589      605.484       654.78
  590      605.901        654.8
  591      606.319       654.94
  592      606.736       654.88
  593      607.154       654.44
  594      607.571        654.4
  595      607.988       655.16
  596      608.405       655.72
  597      608.822       656.14
  598      609.239       656.86
  599      609.656       657.52
  600      610.072       657.68
  601      610.489       657.96
  602      610.905        658.3
  603      611.322       658.66
  604      611.738       659.26
  605      612.154       659.54
  606       612.57       660.04
  607      612.986       661.02
  608      613.402        662.1
  609      613.818       662.82
  610      614.234        664.4
