scansci Spectrometer Data File
--- Measurement Setting ---
Type: Sample Spectrum
Date: Mon Oct 16 16:52:09 2023
User: (Reserved by scansci)
Serial: (Reserved by scansci)
Channel: No. 11
Integration Time: 1
Average: 10
Boxcar: 2
Electrical Dark: No-corrected
Time Normalize: (Reserved by scansci)
Dual-beam: (Reserved by scansci)
Reference Ch: (Reserved by scansci)
--- Measurement Data ---
Pixel   Wavelength   Intensity
    0        162.5        602.2
    1      162.985       601.25
    2      163.469       600.84
    3      163.954       599.66
    4      164.439       599.32
    5      164.923       599.76
    6      165.408       600.04
    7      165.892        600.4
    8      166.377       601.32
    9      166.861       601.92
   10      167.345       601.84
   11       167.83       601.78
   12      168.314       601.44
   13      168.798       600.46
   14      169.282       599.56
   15      169.766       598.68
   16       170.25       597.96
   17      170.734       597.32
   18      171.218       596.84
   19      171.702       596.76
   20      172.185       597.24
   21      172.669       597.52
   22      173.153       597.44
   23      173.636       597.68
   24       174.12        597.9
   25      174.603       597.78
   26      175.087       598.26
   27       175.57       599.26
   28      176.053       599.68
   29      176.537       599.68
   30       177.02       599.66
   31      177.503       599.62
   32      177.986       599.98
   33      178.469       600.94
   34      178.952        602.1
   35      179.435       603.64
   36      179.918       604.38
   37      180.401       604.38
   38      180.884       603.88
   39      181.366       603.58
   40      181.849       603.36
   41      182.332       603.58
   42      182.814       603.58
   43      183.297       603.56
   44      183.779       603.42
   45      184.262       603.22
   46      184.744       603.32
   47      185.226       603.16
   48      185.708       602.74
   49      186.191       601.74
   50      186.673       600.26
   51      187.155       598.64
   52      187.637       598.12
   53      188.119       597.56
   54        188.6        597.2
   55      189.082       597.64
   56      189.564       598.16
   57      190.046       598.38
   58      190.527       598.82
   59      191.009       599.14
   60      191.491       598.88
   61      191.972       598.72
   62      192.454       598.42
   63      192.935        597.8
   64      193.416       597.64
   65      193.897       598.06
   66      194.379        598.6
   67       194.86       599.12
   68      195.341       600.54
   69      195.822       602.12
   70      196.303       603.26
   71      196.784       603.76
   72      197.265       603.78
   73      197.746       602.68
   74      198.226       601.34
   75      198.707       599.84
   76      199.188       598.56
   77      199.668       597.88
   78      200.149       597.78
   79      200.629       597.58
   80       201.11       597.76
   81       201.59       598.24
   82       202.07       598.84
   83       202.55       599.28
   84      203.031       599.74
   85      203.511        600.4
   86      203.991          601
   87      204.471       601.28
   88      204.951       601.78
   89      205.431        602.1
   90       205.91        601.7
   91       206.39        601.2
   92       206.87       600.92
   93      207.349        600.7
   94      207.829       601.48
   95      208.309       602.64
   96      208.788       603.08
   97      209.267       603.02
   98      209.747       603.16
   99      210.226       602.84
  100      210.705       602.54
  101      211.185        602.8
  102      211.664       603.36
  103      212.143       603.28
  104      212.622       602.62
  105      213.101       601.64
  106      213.579        600.8
  107      214.058        600.1
  108      214.537       599.96
  109      215.016        600.6
  110      215.494       601.58
  111      215.973       602.42
  112      216.452       602.68
  113       216.93       602.08
  114      217.408       600.96
  115      217.887       599.98
  116      218.365       599.42
  117      218.843        599.1
  118      219.321        599.1
  119      219.799        599.3
  120      220.278       599.34
  121      220.755        598.6
  122      221.233       598.04
  123      221.711       598.24
  124      222.189        598.1
  125      222.667       597.18
  126      223.144       596.66
  127      223.622       596.76
  128        224.1       596.76
  129      224.577        597.5
  130      225.055       599.18
  131      225.532        600.8
  132      226.009       601.82
  133      226.486       602.32
  134      226.964        601.9
  135      227.441        601.1
  136      227.918        600.1
  137      228.395       599.16
  138      228.872        598.5
  139      229.349       598.28
  140      229.826       598.24
  141      230.302       598.62
  142      230.779       599.04
  143      231.256       599.52
  144      231.732       599.88
  145      232.209       600.14
  146      232.685       600.34
  147      233.162        600.5
  148      233.638       600.68
  149      234.114       600.98
  150       234.59       600.94
  151      235.066       600.66
  152      235.543        600.5
  153      236.019       599.92
  154      236.495       599.14
  155       236.97       598.74
  156      237.446       598.74
  157      237.922       598.84
  158      238.398       599.28
  159      238.873       600.18
  160      239.349       600.94
  161      239.824       601.08
  162        240.3        600.7
  163      240.775       599.94
  164      241.251       598.88
  165      241.726       598.08
  166      242.201       597.22
  167      242.676       596.42
  168      243.151       596.22
  169      243.626        595.9
  170      244.101        596.1
  171      244.576       596.98
  172      245.051       597.78
  173      245.526       598.08
  174          246       598.08
  175      246.475       597.66
  176       246.95       597.04
  177      247.424       597.18
  178      247.899        598.1
  179      248.373       599.38
  180      248.847        600.1
  181      249.321       600.32
  182      249.796       600.18
  183       250.27       599.46
  184      250.744       598.96
  185      251.218       598.94
  186      251.692       599.34
  187      252.166        599.7
  188      252.639        600.4
  189      253.113       600.74
  190      253.587       600.58
  191       254.06       600.04
  192      254.534       599.36
  193      255.007       598.24
  194      255.481       597.12
  195      255.954        596.6
  196      256.427       596.44
  197      256.901       596.06
  198      257.374       595.76
  199      257.847       595.66
  200       258.32       595.04
  201      258.793       594.74
  202      259.266       595.16
  203      259.739       595.52
  204      260.211       596.06
  205      260.684       597.28
  206      261.157       598.62
  207      261.629       599.54
  208      262.102       600.36
  209      262.574       600.92
  210      263.046       600.94
  211      263.519       600.38
  212      263.991       599.84
  213      264.463       599.92
  214      264.935       600.32
  215      265.407        600.6
  216      265.879       601.04
  217      266.351       601.72
  218      266.823       601.72
  219      267.295       600.68
  220      267.766       599.66
  221      268.238        599.3
  222       268.71       598.96
  223      269.181       598.72
  224      269.653       599.16
  225      270.124       599.84
  226      270.595       599.62
  227      271.066       599.02
  228      271.538       598.98
  229      272.009       599.14
  230       272.48       599.18
  231      272.951       599.62
  232      273.422       600.08
  233      273.892       600.12
  234      274.363       600.04
  235      274.834       599.62
  236      275.305        598.8
  237      275.775        597.6
  238      276.246       596.48
  239      276.716       595.68
  240      277.186        595.8
  241      277.657       596.52
  242      278.127       597.94
  243      278.597       599.74
  244      279.067        601.3
  245      279.537       602.14
  246      280.007        602.4
  247      280.477       602.42
  248      280.947       602.02
  249      281.417        601.4
  250      281.886       601.44
  251      282.356       602.36
  252      282.825       602.88
  253      283.295       602.96
  254      283.764       603.18
  255      284.234       603.16
  256      284.703       602.52
  257      285.172       601.84
  258      285.641       601.26
  259       286.11       600.24
  260      286.579       598.74
  261      287.048       597.22
  262      287.517       596.14
  263      287.986       595.48
  264      288.454       595.54
  265      288.923       596.38
  266      289.392       597.16
  267       289.86          598
  268      290.329       598.98
  269      290.797       599.88
  270      291.265       600.14
  271      291.734       599.96
  272      292.202       599.44
  273       292.67       598.76
  274      293.138       597.96
  275      293.606       597.48
  276      294.074       597.44
  277      294.541       597.68
  278      295.009        598.3
  279      295.477       599.08
  280      295.944       599.68
  281      296.412       600.32
  282      296.879        601.2
  283      297.347       601.84
  284      297.814       601.78
  285      298.281       601.56
  286      298.749       601.52
  287      299.216       600.78
  288      299.683       599.38
  289       300.15       598.26
  290      300.616       597.44
  291      301.083       596.94
  292       301.55       597.36
  293      302.017       598.46
  294      302.483       599.48
  295       302.95       600.52
  296      303.416       600.74
  297      303.883       600.42
  298      304.349       600.02
  299      304.815       599.68
  300      305.281       599.48
  301      305.748       599.56
  302      306.214        599.3
  303       306.68       598.64
  304      307.146        598.7
  305      307.611       598.52
  306      308.077       598.02
  307      308.543       597.78
  308      309.008       597.74
  309      309.474        597.3
  310      309.939       597.08
  311      310.405        597.7
  312       310.87       598.78
  313      311.335       599.54
  314        311.8       600.04
  315      312.266       600.78
  316      312.731       601.36
  317      313.196       601.54
  318       313.66       601.52
  319      314.125       601.44
  320       314.59       601.06
  321      315.055       600.48
  322      315.519       599.84
  323      315.984       599.14
  324      316.448        598.2
  325      316.913       597.34
  326      317.377       596.72
  327      317.841       596.38
  328      318.305       596.82
  329      318.769        597.9
  330      319.233       598.82
  331      319.697       599.42
  332      320.161        599.9
  333      320.625       600.22
  334      321.089          600
  335      321.552        599.9
  336      322.016       599.98
  337      322.479       600.36
  338      322.943       600.72
  339      323.406       601.02
  340      323.869       601.08
  341      324.333       600.66
  342      324.796       599.82
  343      325.259        598.9
  344      325.722       598.22
  345      326.185        597.9
  346      326.647       597.98
  347       327.11       598.32
  348      327.573          599
  349      328.035       599.58
  350      328.498        599.6
  351       328.96       599.34
  352      329.423          599
  353      329.885        598.1
  354      330.347       597.48
  355       330.81        597.7
  356      331.272       598.24
  357      331.734       598.62
  358      332.196       599.56
  359      332.657       600.52
  360      333.119        600.3
  361      333.581       599.64
  362      334.043       599.28
  363      334.504       598.62
  364      334.966       597.82
  365      335.427       597.58
  366      335.888       597.84
  367       336.35       598.12
  368      336.811       598.72
  369      337.272       599.72
  370      337.733       600.44
  371      338.194       600.62
  372      338.655       600.62
  373      339.115       600.46
  374      339.576       600.04
  375      340.037       599.92
  376      340.497       599.74
  377      340.958       598.94
  378      341.418        597.8
  379      341.879       597.22
  380      342.339       597.32
  381      342.799       597.76
  382      343.259       598.78
  383      343.719       600.12
  384      344.179       600.66
  385      344.639        600.2
  386      345.099       599.54
  387      345.559        599.1
  388      346.018       598.48
  389      346.478       597.58
  390      346.937       597.06
  391      347.397       597.02
  392      347.856        596.7
  393      348.315       596.38
  394      348.774        596.4
  395      349.234       596.36
  396      349.693       596.54
  397      350.152       596.92
  398       350.61       597.42
  399      351.069       597.98
  400      351.528       598.66
  401      351.987       599.14
  402      352.445       599.88
  403      352.904       600.76
  404      353.362       601.32
  405       353.82       601.78
  406      354.279       601.98
  407      354.737       601.38
  408      355.195       600.34
  409      355.653       599.58
  410      356.111       598.46
  411      356.569        597.2
  412      357.027       596.46
  413      357.484       596.26
  414      357.942       596.32
  415      358.399       596.62
  416      358.857       597.32
  417      359.314       598.02
  418      359.772       598.06
  419      360.229       598.18
  420      360.686       598.44
  421      361.143       598.52
  422        361.6       598.32
  423      362.057       598.54
  424      362.514       598.72
  425      362.971       598.94
  426      363.427        599.2
  427      363.884       599.74
  428       364.34       599.66
  429      364.797       599.26
  430      365.253       599.32
  431      365.709       599.04
  432      366.166       598.84
  433      366.622       599.88
  434      367.078       600.72
  435      367.534       600.88
  436       367.99       601.12
  437      368.445        601.2
  438      368.901       600.92
  439      369.357       600.74
  440      369.812       600.44
  441      370.268       600.14
  442      370.723       599.32
  443      371.179       598.24
  444      371.634       597.88
  445      372.089        597.8
  446      372.544       597.92
  447      372.999       598.24
  448      373.454       598.52
  449      373.909       598.88
  450      374.364       599.22
  451      374.818        599.2
  452      375.273       599.42
  453      375.727        599.7
  454      376.182       599.16
  455      376.636       598.36
  456       377.09        597.8
  457      377.545       597.16
  458      377.999       596.52
  459      378.453       596.24
  460      378.907       596.26
  461      379.361       596.86
  462      379.814        598.1
  463      380.268       599.66
  464      380.722       600.84
  465      381.175       601.34
  466      381.629       601.08
  467      382.082       600.62
  468      382.535       599.96
  469      382.989       599.72
  470      383.442       600.04
  471      383.895        600.2
  472      384.348       599.88
  473      384.801        599.3
  474      385.253       598.06
  475      385.706       596.84
  476      386.159       596.46
  477      386.611       596.32
  478      387.064       596.12
  479      387.516       596.58
  480      387.968        597.2
  481      388.421       597.44
  482      388.873       597.42
  483      389.325       597.66
  484      389.777       598.24
  485      390.229       599.36
  486      390.681       600.38
  487      391.132       601.28
  488      391.584       602.06
  489      392.035       602.34
  490      392.487       601.92
  491      392.938       601.36
  492       393.39       601.26
  493      393.841        601.5
  494      394.292       601.56
  495      394.743       602.12
  496      395.194       603.16
  497      395.645       603.76
  498      396.096       603.72
  499      396.546        603.6
  500      396.997        602.8
  501      397.448       600.92
  502      397.898       598.88
  503      398.349       597.24
  504      398.799          596
  505      399.249       595.78
  506      399.699        597.1
  507      400.149       599.04
  508      400.599       601.02
  509      401.049       602.52
  510      401.499       603.22
  511      401.949        602.8
  512      402.398       601.94
  513      402.848       600.82
  514      403.297       600.24
  515      403.747       600.06
  516      404.196       600.14
  517      404.645       600.12
  518      405.094        600.3
  519      405.543        600.5
  520      405.992       600.38
  521      406.441       599.92
  522       406.89       599.52
  523      407.339          599
  524      407.787          598
  525      408.236        597.3
  526      408.684        597.7
  527      409.132       598.62
  528      409.581        599.4
  529      410.029       600.64
  530      410.477       601.74
  531      410.925       602.22
  532      411.373       602.26
  533      411.821       602.28
  534      412.269       602.28
  535      412.716       602.16
  536      413.164        602.2
  537      413.611       602.48
  538      414.059       602.86
  539      414.506       602.86
  540      414.953        602.4
  541        415.4       601.62
  542      415.847       601.24
  543      416.294       600.98
  544      416.741       600.74
  545      417.188       600.76
  546      417.635          601
  547      418.081       601.12
  548      418.528       601.68
  549      418.974       602.24
  550      419.421        603.1
  551      419.867       603.76
  552      420.313       603.84
  553      420.759        603.8
  554      421.205       603.78
  555      421.651       603.46
  556      422.097       603.54
  557      422.543       604.34
  558      422.989       605.28
  559      423.434       606.36
  560       423.88       607.22
  561      424.325        607.8
  562       424.77          608
  563      425.216       607.94
  564      425.661        607.6
  565      426.106       607.28
  566      426.551       607.02
  567      426.996       606.96
  568       427.44       606.84
  569      427.885       606.68
  570       428.33       606.52
  571      428.774       606.48
  572      429.219       606.56
  573      429.663       606.62
  574      430.107       606.66
  575      430.551        607.1
  576      430.996       608.12
  577       431.44        609.2
  578      431.883       609.94
  579      432.327       611.36
  580      432.771       613.02
  581      433.215       614.06
  582      433.658       615.02
  583      434.102       616.58
  584      434.545       617.06
  585      434.988       616.32
  586      435.431       615.46
  587      435.875       614.38
  588      436.318       613.16
  589      436.761       613.36
  590      437.203       615.04
  591      437.646       616.86
  592      438.089       618.88
  593      438.531       620.88
  594      438.974       622.58
  595      439.416       623.88
  596      439.859        625.3
  597      440.301        626.5
  598      440.743       627.62
  599      441.185       629.16
  600      441.627        630.5
  601      442.069       631.76
  602       442.51       633.62
  603      442.952       635.58
  604      443.394       636.78
  605      443.835       637.86
  606      444.277       638.76
  607      444.718        638.6
  608      445.159       638.16
  609        445.6       637.78
  610      446.041       638.08
