scansci Spectrometer Data File
--- Measurement Setting ---
Type: Sample Spectrum
Date: Mon Oct 16 16:28:34 2023
User: (Reserved by scansci)
Serial: (Reserved by scansci)
Channel: No. 11
Integration Time: 1
Average: 10
Boxcar: 2
Electrical Dark: No-corrected
Time Normalize: (Reserved by scansci)
Dual-beam: (Reserved by scansci)
Reference Ch: (Reserved by scansci)
--- Measurement Data ---
Pixel   Wavelength   Intensity
    0        162.5      618.933
    1      162.985      618.875
    2      163.469       618.84
    3      163.954        618.9
    4      164.439       618.52
    5      164.923       617.86
    6      165.408        617.3
    7      165.892       616.98
    8      166.377       616.74
    9      166.861        616.3
   10      167.345       616.12
   11       167.83       615.56
   12      168.314       614.46
   13      168.798       613.58
   14      169.282       612.96
   15      169.766       612.78
   16       170.25       613.48
   17      170.734       614.04
   18      171.218       614.62
   19      171.702       615.54
   20      172.185       615.94
   21      172.669       615.74
   22      173.153       615.58
   23      173.636       615.92
   24       174.12       616.58
   25      174.603       616.94
   26      175.087        617.2
   27       175.57       617.84
   28      176.053        617.9
   29      176.537        617.2
   30       177.02       616.62
   31      177.503       615.64
   32      177.986       614.86
   33      178.469       614.66
   34      178.952       614.54
   35      179.435       614.32
   36      179.918       614.64
   37      180.401        614.8
   38      180.884        614.4
   39      181.366       613.88
   40      181.849       614.04
   41      182.332        614.9
   42      182.814       615.72
   43      183.297       616.38
   44      183.779       616.96
   45      184.262       616.76
   46      184.744       616.02
   47      185.226       615.56
   48      185.708       614.92
   49      186.191       614.52
   50      186.673       614.44
   51      187.155       613.94
   52      187.637        613.4
   53      188.119       613.24
   54        188.6       612.76
   55      189.082        612.6
   56      189.564       613.42
   57      190.046       614.48
   58      190.527       615.36
   59      191.009       616.12
   60      191.491       616.86
   61      191.972       617.26
   62      192.454       617.12
   63      192.935        616.6
   64      193.416       616.92
   65      193.897       617.54
   66      194.379       617.86
   67       194.86        618.1
   68      195.341       618.68
   69      195.822       618.58
   70      196.303       617.76
   71      196.784       617.02
   72      197.265       616.54
   73      197.746       616.12
   74      198.226       615.86
   75      198.707        615.8
   76      199.188       615.96
   77      199.668       616.06
   78      200.149       615.98
   79      200.629       616.08
   80       201.11       616.34
   81       201.59       616.46
   82       202.07       616.36
   83       202.55       616.08
   84      203.031        615.9
   85      203.511        616.3
   86      203.991       616.18
   87      204.471        615.3
   88      204.951       615.06
   89      205.431       615.24
   90       205.91       614.86
   91       206.39       614.86
   92       206.87          616
   93      207.349          617
   94      207.829        617.9
   95      208.309       618.88
   96      208.788       619.86
   97      209.267       620.78
   98      209.747       621.04
   99      210.226        620.8
  100      210.705       620.54
  101      211.185       619.96
  102      211.664       618.98
  103      212.143       618.34
  104      212.622       617.48
  105      213.101        616.1
  106      213.579       614.96
  107      214.058       614.08
  108      214.537       613.26
  109      215.016       612.46
  110      215.494       611.74
  111      215.973       611.54
  112      216.452       612.04
  113       216.93        612.9
  114      217.408       613.84
  115      217.887        615.2
  116      218.365       616.28
  117      218.843       616.34
  118      219.321       615.94
  119      219.799       615.56
  120      220.278          615
  121      220.755       614.38
  122      221.233        614.5
  123      221.711       614.68
  124      222.189       614.36
  125      222.667       614.18
  126      223.144       614.46
  127      223.622        614.5
  128        224.1       614.82
  129      224.577       616.02
  130      225.055       616.92
  131      225.532       616.96
  132      226.009       616.82
  133      226.486       616.24
  134      226.964       615.24
  135      227.441       614.58
  136      227.918       614.66
  137      228.395       614.68
  138      228.872       614.42
  139      229.349       614.26
  140      229.826       614.16
  141      230.302       613.92
  142      230.779       613.54
  143      231.256       613.54
  144      231.732       613.86
  145      232.209       613.62
  146      232.685       612.78
  147      233.162       612.14
  148      233.638       612.12
  149      234.114       612.18
  150       234.59       612.92
  151      235.066       614.56
  152      235.543       616.38
  153      236.019       617.18
  154      236.495        617.4
  155       236.97        617.2
  156      237.446       616.24
  157      237.922       615.32
  158      238.398       615.06
  159      238.873       614.88
  160      239.349        614.7
  161      239.824        614.8
  162        240.3       614.82
  163      240.775       615.08
  164      241.251       615.56
  165      241.726       616.24
  166      242.201       616.82
  167      242.676       617.14
  168      243.151       617.08
  169      243.626       616.88
  170      244.101       616.32
  171      244.576       615.52
  172      245.051       615.08
  173      245.526        614.8
  174          246       614.44
  175      246.475       614.34
  176       246.95       614.54
  177      247.424       614.32
  178      247.899        614.2
  179      248.373       614.66
  180      248.847       615.46
  181      249.321       616.26
  182      249.796       617.04
  183       250.27       617.08
  184      250.744       616.28
  185      251.218       615.24
  186      251.692       614.16
  187      252.166       613.86
  188      252.639       614.72
  189      253.113       615.68
  190      253.587       616.62
  191       254.06        617.4
  192      254.534       617.34
  193      255.007       616.52
  194      255.481       615.52
  195      255.954       614.16
  196      256.427       613.12
  197      256.901       612.68
  198      257.374       612.26
  199      257.847       612.16
  200       258.32       612.48
  201      258.793       612.86
  202      259.266        613.3
  203      259.739       614.12
  204      260.211       615.34
  205      260.684       615.88
  206      261.157       615.76
  207      261.629       615.58
  208      262.102       615.62
  209      262.574       615.66
  210      263.046        616.1
  211      263.519       616.64
  212      263.991       616.64
  213      264.463        616.2
  214      264.935        615.6
  215      265.407       615.08
  216      265.879       615.12
  217      266.351       615.48
  218      266.823       615.96
  219      267.295       616.34
  220      267.766       616.48
  221      268.238       616.18
  222       268.71       615.82
  223      269.181       615.24
  224      269.653       614.44
  225      270.124       614.04
  226      270.595       614.08
  227      271.066       613.96
  228      271.538        614.1
  229      272.009       614.32
  230       272.48        614.5
  231      272.951       614.84
  232      273.422       614.96
  233      273.892        614.8
  234      274.363       615.06
  235      274.834       615.32
  236      275.305       614.86
  237      275.775       614.74
  238      276.246       614.68
  239      276.716        614.1
  240      277.186        613.8
  241      277.657       614.26
  242      278.127       614.62
  243      278.597        615.2
  244      279.067       616.36
  245      279.537       616.92
  246      280.007       616.92
  247      280.477       616.78
  248      280.947       616.32
  249      281.417       615.62
  250      281.886       615.36
  251      282.356        615.2
  252      282.825       614.88
  253      283.295       615.06
  254      283.764          616
  255      284.234       616.62
  256      284.703       616.84
  257      285.172       617.64
  258      285.641       617.98
  259       286.11       617.26
  260      286.579       616.24
  261      287.048       615.52
  262      287.517       614.76
  263      287.986       613.84
  264      288.454       613.22
  265      288.923       613.48
  266      289.392        613.8
  267       289.86        613.7
  268      290.329       613.66
  269      290.797       613.68
  270      291.265       613.84
  271      291.734       614.12
  272      292.202        614.6
  273       292.67       615.38
  274      293.138       615.86
  275      293.606       615.24
  276      294.074       614.96
  277      294.541       615.66
  278      295.009       616.12
  279      295.477       616.14
  280      295.944       616.44
  281      296.412       616.68
  282      296.879        616.6
  283      297.347       616.48
  284      297.814       616.48
  285      298.281        616.7
  286      298.749       616.76
  287      299.216        616.1
  288      299.683       615.44
  289       300.15       615.06
  290      300.616       614.88
  291      301.083       614.48
  292       301.55       614.18
  293      302.017       614.52
  294      302.483       615.14
  295       302.95        614.9
  296      303.416       614.32
  297      303.883       613.98
  298      304.349       613.42
  299      304.815       612.76
  300      305.281       612.82
  301      305.748       613.34
  302      306.214       613.48
  303       306.68       613.42
  304      307.146        614.1
  305      307.611        614.9
  306      308.077       615.52
  307      308.543       616.12
  308      309.008       616.48
  309      309.474        616.1
  310      309.939       615.64
  311      310.405       615.02
  312       310.87       614.64
  313      311.335       614.84
  314        311.8       615.28
  315      312.266       615.34
  316      312.731       615.42
  317      313.196       615.26
  318       313.66       614.28
  319      314.125       613.02
  320       314.59       612.84
  321      315.055       613.02
  322      315.519       613.34
  323      315.984       613.92
  324      316.448        614.6
  325      316.913       614.58
  326      317.377       614.32
  327      317.841        614.2
  328      318.305       614.48
  329      318.769       614.76
  330      319.233        614.8
  331      319.697       615.04
  332      320.161       615.18
  333      320.625       614.82
  334      321.089       614.22
  335      321.552       614.28
  336      322.016        614.8
  337      322.479       615.06
  338      322.943       615.28
  339      323.406       615.74
  340      323.869       616.16
  341      324.333       616.42
  342      324.796        616.8
  343      325.259       617.04
  344      325.722       617.02
  345      326.185        616.3
  346      326.647       614.94
  347       327.11       613.68
  348      327.573       612.64
  349      328.035        611.9
  350      328.498       612.08
  351       328.96       612.68
  352      329.423       613.44
  353      329.885       614.48
  354      330.347       615.08
  355       330.81       615.12
  356      331.272       615.32
  357      331.734       615.42
  358      332.196       615.88
  359      332.657       617.04
  360      333.119       617.84
  361      333.581       617.62
  362      334.043       616.66
  363      334.504       615.66
  364      334.966       614.94
  365      335.427        614.1
  366      335.888        613.6
  367       336.35       613.62
  368      336.811       613.14
  369      337.272       611.94
  370      337.733       610.88
  371      338.194       610.38
  372      338.655       610.72
  373      339.115        611.3
  374      339.576       612.28
  375      340.037       613.84
  376      340.497       615.14
  377      340.958       615.68
  378      341.418       615.94
  379      341.879       616.34
  380      342.339       616.74
  381      342.799       617.32
  382      343.259       617.56
  383      343.719       617.56
  384      344.179        616.9
  385      344.639       615.92
  386      345.099       614.96
  387      345.559       614.36
  388      346.018       614.32
  389      346.478       614.18
  390      346.937          614
  391      347.397       614.04
  392      347.856       614.44
  393      348.315       614.58
  394      348.774       615.28
  395      349.234       616.34
  396      349.693       617.32
  397      350.152       618.08
  398       350.61        618.9
  399      351.069       619.36
  400      351.528       619.14
  401      351.987       618.06
  402      352.445        616.9
  403      352.904       615.68
  404      353.362       614.06
  405       353.82       612.78
  406      354.279       612.82
  407      354.737        613.2
  408      355.195        613.5
  409      355.653        614.6
  410      356.111          616
  411      356.569       616.44
  412      357.027       616.76
  413      357.484        617.1
  414      357.942          617
  415      358.399       616.28
  416      358.857        615.6
  417      359.314        615.3
  418      359.772        615.4
  419      360.229       615.36
  420      360.686       616.02
  421      361.143        616.8
  422        361.6       616.76
  423      362.057       616.46
  424      362.514       616.34
  425      362.971        615.9
  426      363.427        615.4
  427      363.884       615.02
  428       364.34       614.66
  429      364.797        614.5
  430      365.253       614.96
  431      365.709       614.92
  432      366.166       614.58
  433      366.622       614.46
  434      367.078       614.16
  435      367.534       612.96
  436       367.99       612.18
  437      368.445       612.26
  438      368.901       612.46
  439      369.357       612.86
  440      369.812       613.48
  441      370.268       614.48
  442      370.723        615.3
  443      371.179       615.94
  444      371.634        616.4
  445      372.089       616.42
  446      372.544       616.18
  447      372.999       615.96
  448      373.454       615.92
  449      373.909        616.3
  450      374.364        617.3
  451      374.818       618.46
  452      375.273       619.16
  453      375.727        619.4
  454      376.182       618.82
  455      376.636       617.38
  456       377.09       615.38
  457      377.545        613.9
  458      377.999       613.28
  459      378.453       613.56
  460      378.907       614.82
  461      379.361       616.52
  462      379.814       617.54
  463      380.268        617.8
  464      380.722        617.9
  465      381.175       617.44
  466      381.629       616.66
  467      382.082       615.78
  468      382.535        615.1
  469      382.989        614.6
  470      383.442       614.52
  471      383.895       614.66
  472      384.348        615.5
  473      384.801       616.38
  474      385.253       616.88
  475      385.706       616.96
  476      386.159       616.72
  477      386.611       615.82
  478      387.064        614.9
  479      387.516       614.08
  480      387.968        613.3
  481      388.421          613
  482      388.873       613.28
  483      389.325       613.58
  484      389.777       614.04
  485      390.229       614.62
  486      390.681       614.58
  487      391.132        614.6
  488      391.584        614.8
  489      392.035       614.38
  490      392.487       614.46
  491      392.938       615.24
  492       393.39       615.56
  493      393.841       615.52
  494      394.292       615.84
  495      394.743       615.36
  496      395.194       614.88
  497      395.645       614.82
  498      396.096        614.6
  499      396.546       614.26
  500      396.997       614.52
  501      397.448        614.6
  502      397.898       614.74
  503      398.349        615.5
  504      398.799       616.36
  505      399.249       617.06
  506      399.699          618
  507      400.149        618.8
  508      400.599       618.78
  509      401.049       618.62
  510      401.499       618.34
  511      401.949       617.06
  512      402.398       615.48
  513      402.848       614.68
  514      403.297       614.42
  515      403.747       614.32
  516      404.196        615.2
  517      404.645          616
  518      405.094       616.48
  519      405.543        616.8
  520      405.992          617
  521      406.441       616.98
  522       406.89       617.44
  523      407.339       618.36
  524      407.787       619.32
  525      408.236          620
  526      408.684       620.06
  527      409.132       619.78
  528      409.581        618.8
  529      410.029       616.72
  530      410.477       614.74
  531      410.925        614.1
  532      411.373       614.06
  533      411.821       614.06
  534      412.269          615
  535      412.716       616.14
  536      413.164       616.44
  537      413.611       616.26
  538      414.059       616.44
  539      414.506        616.8
  540      414.953       616.94
  541        415.4       616.88
  542      415.847        616.7
  543      416.294       616.44
  544      416.741       615.78
  545      417.188       615.24
  546      417.635       614.84
  547      418.081       614.58
  548      418.528       614.64
  549      418.974       614.82
  550      419.421       614.94
  551      419.867       615.28
  552      420.313        616.2
  553      420.759       616.98
  554      421.205       617.22
  555      421.651       617.14
  556      422.097       617.38
  557      422.543       617.36
  558      422.989       616.84
  559      423.434       616.84
  560       423.88       617.56
  561      424.325        617.8
  562       424.77       617.36
  563      425.216       617.08
  564      425.661       617.16
  565      426.106       617.04
  566      426.551       617.04
  567      426.996       617.82
  568       427.44       619.06
  569      427.885       620.38
  570       428.33       621.86
  571      428.774       623.06
  572      429.219        623.4
  573      429.663       623.18
  574      430.107       622.56
  575      430.551       621.94
  576      430.996        621.4
  577       431.44       621.26
  578      431.883       621.54
  579      432.327       622.12
  580      432.771       622.58
  581      433.215       623.44
  582      433.658       623.98
  583      434.102       623.72
  584      434.545       623.38
  585      434.988       623.08
  586      435.431       622.82
  587      435.875       623.72
  588      436.318       625.46
  589      436.761       627.16
  590      437.203          629
  591      437.646       630.82
  592      438.089       631.84
  593      438.531       632.44
  594      438.974       632.86
  595      439.416       633.36
  596      439.859       634.24
  597      440.301       635.48
  598      440.743        636.8
  599      441.185       638.16
  600      441.627       640.08
  601      442.069        641.9
  602       442.51       643.36
  603      442.952        644.7
  604      443.394       645.84
  605      443.835       646.68
  606      444.277       648.02
  607      444.718       650.48
  608      445.159       653.58
  609        445.6        656.6
  610      446.041        659.5
