scansci Spectrometer Data File
--- Measurement Setting ---
Type: Sample Spectrum
Date: Mon Oct 16 16:52:51 2023
User: (Reserved by scansci)
Serial: (Reserved by scansci)
Channel: No. 11
Integration Time: 1
Average: 10
Boxcar: 2
Electrical Dark: No-corrected
Time Normalize: (Reserved by scansci)
Dual-beam: (Reserved by scansci)
Reference Ch: (Reserved by scansci)
--- Measurement Data ---
Pixel   Wavelength   Intensity
    0        344.4      676.133
    1      344.867      676.075
    2      345.334       675.94
    3      345.801        676.1
    4      346.268       675.58
    5      346.735       675.12
    6      347.202       675.42
    7      347.669       675.66
    8      348.135       675.42
    9      348.602       675.38
   10      349.068        675.4
   11      349.535        675.1
   12      350.001        674.6
   13      350.467       674.22
   14      350.933       673.18
   15      351.399       671.78
   16      351.866       670.44
   17      352.331       669.64
   18      352.797       669.32
   19      353.263       670.26
   20      353.729       671.26
   21      354.194       671.74
   22       354.66       671.78
   23      355.126       671.64
   24      355.591       670.82
   25      356.056       670.34
   26      356.522       670.34
   27      356.987       670.58
   28      357.452       670.82
   29      357.917       671.04
   30      358.382       671.06
   31      358.847       671.26
   32      359.312       671.54
   33      359.776       671.94
   34      360.241       672.36
   35      360.706       672.94
   36       361.17       673.16
   37      361.634        673.2
   38      362.099        673.2
   39      362.563       673.16
   40      363.027       672.84
   41      363.491       672.64
   42      363.955       672.42
   43      364.419       672.08
   44      364.883       672.16
   45      365.347       672.16
   46      365.811       672.22
   47      366.274       672.38
   48      366.738        672.6
   49      367.201       672.88
   50      367.665        673.1
   51      368.128       672.74
   52      368.592       672.44
   53      369.055       672.48
   54      369.518       672.28
   55      369.981       672.14
   56      370.444       672.38
   57      370.907       672.78
   58       371.37       673.14
   59      371.832        673.7
   60      372.295        674.2
   61      372.757        674.6
   62       373.22       674.84
   63      373.682          675
   64      374.145          675
   65      374.607       674.88
   66      375.069       674.32
   67      375.531       673.64
   68      375.993       672.78
   69      376.455       671.72
   70      376.917       670.78
   71      377.379       670.32
   72      377.841       669.72
   73      378.302       669.16
   74      378.764       669.26
   75      379.225       669.82
   76      379.687        670.6
   77      380.148        671.7
   78      380.609       672.58
   79      381.071       672.74
   80      381.532       672.78
   81      381.993       672.68
   82      382.454       672.38
   83      382.915       672.24
   84      383.375       672.24
   85      383.836       672.04
   86      384.297       671.98
   87      384.757        672.1
   88      385.218       672.16
   89      385.678       672.36
   90      386.138       672.48
   91      386.599       672.14
   92      387.059       671.46
   93      387.519       670.92
   94      387.979        670.6
   95      388.439       670.36
   96      388.899       670.84
   97      389.358       672.06
   98      389.818        673.4
   99      390.278       673.92
  100      390.737       674.24
  101      391.197       674.68
  102      391.656       674.86
  103      392.115       674.52
  104      392.575       674.54
  105      393.034       674.68
  106      393.493       674.02
  107      393.952       673.22
  108      394.411       672.62
  109       394.87       671.86
  110      395.328       671.42
  111      395.787       671.58
  112      396.246        672.1
  113      396.704       672.84
  114      397.163        673.5
  115      397.621       673.98
  116      398.079       674.06
  117      398.537       673.36
  118      398.995       672.74
  119      399.454        672.9
  120      399.911       673.12
  121      400.369       673.64
  122      400.827       674.04
  123      401.285       673.74
  124      401.743        673.3
  125        402.2       672.92
  126      402.658       672.42
  127      403.115       672.32
  128      403.572        672.7
  129       404.03          673
  130      404.487       672.96
  131      404.944       672.74
  132      405.401       672.66
  133      405.858       672.68
  134      406.315       672.64
  135      406.771        672.7
  136      407.228       672.66
  137      407.685       672.46
  138      408.141       672.44
  139      408.598        672.2
  140      409.054       671.98
  141       409.51       672.54
  142      409.967       673.32
  143      410.423       673.92
  144      410.879       673.84
  145      411.335        673.4
  146      411.791       672.48
  147      412.246       671.76
  148      412.702       670.98
  149      413.158       671.24
  150      413.613       671.74
  151      414.069       671.74
  152      414.524        671.8
  153       414.98       672.32
  154      415.435       672.56
  155       415.89       672.72
  156      416.345        673.1
  157        416.8          673
  158      417.255       672.44
  159       417.71       671.64
  160      418.165       671.06
  161      418.619       671.14
  162      419.074       671.28
  163      419.529       671.38
  164      419.983       671.72
  165      420.437       671.86
  166      420.892       671.56
  167      421.346       671.36
  168        421.8       671.34
  169      422.254       671.48
  170      422.708       671.78
  171      423.162       672.08
  172      423.616       672.36
  173       424.07       672.26
  174      424.523       672.14
  175      424.977        671.9
  176       425.43       671.36
  177      425.884       671.38
  178      426.337       672.16
  179       426.79       673.16
  180      427.243       674.44
  181      427.697        675.9
  182       428.15       676.16
  183      428.602       675.64
  184      429.055        674.9
  185      429.508       674.28
  186      429.961       673.58
  187      430.413       673.28
  188      430.866       673.22
  189      431.318       673.28
  190      431.771       672.78
  191      432.223       671.78
  192      432.675       671.04
  193      433.127        670.8
  194      433.579        670.5
  195      434.031       670.74
  196      434.483       671.78
  197      434.935       672.92
  198      435.387        673.2
  199      435.838       672.92
  200       436.29       672.34
  201      436.741        671.4
  202      437.193       670.18
  203      437.644        669.8
  204      438.095        670.6
  205      438.546       671.48
  206      438.997       672.32
  207      439.448       673.22
  208      439.899       673.42
  209       440.35       672.64
  210      440.801       672.02
  211      441.251       671.84
  212      441.702       671.72
  213      442.152       671.98
  214      442.603       672.06
  215      443.053       671.98
  216      443.503       672.26
  217      443.954       672.64
  218      444.404       672.82
  219      444.854       673.24
  220      445.304       674.12
  221      445.753        674.2
  222      446.203       673.82
  223      446.653       673.84
  224      447.102        674.2
  225      447.552        673.8
  226      448.001       673.56
  227      448.451        673.6
  228        448.9        673.4
  229      449.349       673.36
  230      449.798       674.02
  231      450.247       674.32
  232      450.696        674.3
  233      451.145       674.18
  234      451.594       673.28
  235      452.042       672.04
  236      452.491       671.52
  237      452.939       671.28
  238      453.388       671.06
  239      453.836       671.38
  240      454.285        671.5
  241      454.733       671.18
  242      455.181       671.24
  243      455.629        671.7
  244      456.077        671.8
  245      456.525       671.96
  246      456.972       672.56
  247       457.42       672.84
  248      457.868       672.68
  249      458.315       672.36
  250      458.763       672.06
  251       459.21       671.88
  252      459.657       671.74
  253      460.104        671.4
  254      460.552       671.38
  255      460.999       671.66
  256      461.446       671.66
  257      461.892        671.6
  258      462.339        671.3
  259      462.786       671.02
  260      463.233       670.48
  261      463.679       669.86
  262      464.125       669.26
  263      464.572       668.84
  264      465.018       668.66
  265      465.464       669.12
  266       465.91       669.48
  267      466.356       669.64
  268      466.802       670.02
  269      467.248       670.26
  270      467.694        670.1
  271       468.14       669.92
  272      468.585        670.2
  273      469.031       670.94
  274      469.476       671.74
  275      469.922       672.46
  276      470.367       673.24
  277      470.812       673.78
  278      471.257       673.78
  279      471.702       673.54
  280      472.147       673.02
  281      472.592       672.64
  282      473.037       672.42
  283      473.482       672.28
  284      473.926       672.12
  285      474.371       672.28
  286      474.815       672.28
  287      475.259       671.88
  288      475.704       671.54
  289      476.148       671.52
  290      476.592       671.56
  291      477.036       671.74
  292       477.48        671.6
  293      477.924       671.54
  294      478.368        671.8
  295      478.811       671.42
  296      479.255        670.4
  297      479.698        669.9
  298      480.142       669.22
  299      480.585       668.44
  300      481.028       668.62
  301      481.472       669.76
  302      481.915        670.5
  303      482.358          671
  304      482.801       671.54
  305      483.244       671.86
  306      483.686       671.16
  307      484.129       670.22
  308      484.572       669.52
  309      485.014       668.42
  310      485.456        667.2
  311      485.899        666.8
  312      486.341       666.94
  313      486.783       667.42
  314      487.225        667.9
  315      487.667       667.86
  316      488.109       667.72
  317      488.551       668.36
  318      488.993       669.04
  319      489.434       669.64
  320      489.876       670.68
  321      490.318       671.82
  322      490.759       672.56
  323        491.2       673.16
  324      491.641       673.64
  325      492.083       673.84
  326      492.524       673.76
  327      492.965       673.52
  328      493.406       673.16
  329      493.846        672.8
  330      494.287       672.56
  331      494.728       672.62
  332      495.168       672.32
  333      495.609        671.7
  334      496.049       671.82
  335      496.489        672.5
  336       496.93       672.68
  337       497.37        673.1
  338       497.81       673.76
  339       498.25       673.94
  340       498.69        673.5
  341      499.129       673.16
  342      499.569       672.68
  343      500.009       672.36
  344      500.448       672.08
  345      500.888       671.56
  346      501.327       670.98
  347      501.766       670.92
  348      502.206        671.3
  349      502.645       671.46
  350      503.084        671.6
  351      503.523       671.72
  352      503.961       671.48
  353        504.4       671.02
  354      504.839       670.66
  355      505.277       670.48
  356      505.716        670.8
  357      506.154       671.42
  358      506.593       671.56
  359      507.031       671.74
  360      507.469       672.22
  361      507.907       672.68
  362      508.345       673.16
  363      508.783       673.28
  364      509.221       672.82
  365      509.659       672.66
  366      510.096       672.78
  367      510.534       672.62
  368      510.971       673.12
  369      511.409       674.24
  370      511.846       674.58
  371      512.283       674.62
  372       512.72       674.86
  373      513.157       675.12
  374      513.594       675.14
  375      514.031       675.68
  376      514.468        675.9
  377      514.905       675.56
  378      515.341       674.64
  379      515.778       673.46
  380      516.214       671.84
  381       516.65        670.4
  382      517.087       669.66
  383      517.523       669.52
  384      517.959       669.96
  385      518.395       671.02
  386      518.831       671.74
  387      519.267       672.08
  388      519.702       672.52
  389      520.138       672.56
  390      520.574        672.3
  391      521.009       672.34
  392      521.444        672.4
  393       521.88       671.86
  394      522.315        671.3
  395       522.75       670.72
  396      523.185        670.6
  397       523.62       670.86
  398      524.055       671.38
  399       524.49       672.26
  400      524.924       672.92
  401      525.359       672.98
  402      525.794       672.82
  403      526.228       672.94
  404      526.662       672.84
  405      527.097       672.78
  406      527.531        672.7
  407      527.965       672.52
  408      528.399       672.64
  409      528.833       673.66
  410      529.267       674.88
  411        529.7       675.88
  412      530.134       676.82
  413      530.568       677.04
  414      531.001       676.14
  415      531.434       674.96
  416      531.868       673.98
  417      532.301       673.46
  418      532.734       673.46
  419      533.167       673.52
  420        533.6       673.88
  421      534.033       674.76
  422      534.466       675.22
  423      534.898       675.32
  424      535.331        675.7
  425      535.763       676.32
  426      536.196       676.12
  427      536.628       675.56
  428       537.06       674.98
  429      537.493       674.22
  430      537.925       673.38
  431      538.357       673.24
  432      538.788       673.72
  433       539.22       674.56
  434      539.652       675.74
  435      540.084       676.12
  436      540.515       675.96
  437      540.947        675.7
  438      541.378       675.66
  439      541.809       675.28
  440       542.24       675.06
  441      542.672       675.02
  442      543.103       674.96
  443      543.533       674.46
  444      543.964       674.18
  445      544.395       674.52
  446      544.826       674.98
  447      545.256          675
  448      545.687        674.4
  449      546.117       673.82
  450      546.547       673.28
  451      546.978       672.54
  452      547.408        672.3
  453      547.838       673.02
  454      548.268       673.58
  455      548.698       673.86
  456      549.127       674.68
  457      549.557       675.36
  458      549.987        675.2
  459      550.416       675.24
  460      550.846        675.2
  461      551.275       674.84
  462      551.704       674.76
  463      552.133       675.22
  464      552.562       675.46
  465      552.991        675.7
  466       553.42        675.7
  467      553.849       675.04
  468      554.278       674.18
  469      554.706       673.56
  470      555.135       673.14
  471      555.563       673.04
  472      555.991        673.3
  473       556.42       673.66
  474      556.848       673.98
  475      557.276       674.16
  476      557.704       673.92
  477      558.132        673.4
  478       558.56       673.22
  479      558.987       672.98
  480      559.415        672.8
  481      559.843       673.18
  482       560.27       673.98
  483      560.697       674.62
  484      561.125       675.22
  485      561.552       675.56
  486      561.979        675.6
  487      562.406       675.64
  488      562.833        675.4
  489       563.26       674.92
  490      563.686       674.88
  491      564.113        674.8
  492       564.54       674.08
  493      564.966       673.44
  494      565.392       673.52
  495      565.819          674
  496      566.245       674.72
  497      566.671        675.4
  498      567.097       676.16
  499      567.523       676.52
  500      567.949       676.06
  501      568.374       675.48
  502        568.8       675.62
  503      569.226       675.18
  504      569.651        674.5
  505      570.077       674.24
  506      570.502       673.86
  507      570.927        673.1
  508      571.352       672.88
  509      571.777       672.88
  510      572.202       672.78
  511      572.627       672.94
  512      573.052       673.52
  513      573.476       674.22
  514      573.901       674.96
  515      574.325        675.2
  516       574.75        675.1
  517      575.174       675.04
  518      575.598       675.04
  519      576.022       674.96
  520      576.446       675.28
  521       576.87        675.7
  522      577.294       675.64
  523      577.718        675.3
  524      578.142       674.98
  525      578.565       674.54
  526      578.989       674.02
  527      579.412       673.64
  528      579.835       673.44
  529      580.259       673.26
  530      580.682       672.92
  531      581.105       672.76
  532      581.528       673.42
  533      581.951       674.42
  534      582.373       675.26
  535      582.796       676.42
  536      583.219        677.3
  537      583.641       677.34
  538      584.063       677.06
  539      584.486       677.06
  540      584.908       676.98
  541       585.33       676.98
  542      585.752          677
  543      586.174       677.16
  544      586.596       677.26
  545      587.018       676.92
  546      587.439        676.7
  547      587.861       676.74
  548      588.282       676.38
  549      588.704       675.94
  550      589.125       676.04
  551      589.546       676.14
  552      589.967       676.02
  553      590.388       675.66
  554      590.809       674.96
  555       591.23       674.76
  556      591.651       674.86
  557      592.071       674.82
  558      592.492       675.32
  559      592.912       677.06
  560      593.333       678.36
  561      593.753       678.98
  562      594.173       679.84
  563      594.593       680.48
  564      595.013        679.8
  565      595.433       678.98
  566      595.853       678.38
  567      596.273        677.4
  568      596.693       676.66
  569      597.112       676.64
  570      597.532       676.78
  571      597.951       677.48
  572       598.37       678.82
  573      598.789       679.94
  574      599.208       680.64
  575      599.627       681.16
  576      600.046       681.06
  577      600.465        680.3
  578      600.884       679.52
  579      601.303       678.96
  580      601.721        678.1
  581      602.139       677.32
  582      602.558       676.94
  583      602.976       676.84
  584      603.394        676.8
  585      603.812       677.36
  586       604.23       678.18
  587      604.648       678.98
  588      605.066       679.16
  589      605.484       678.86
  590      605.901       678.54
  591      606.319       678.28
  592      606.736       677.58
  593      607.154          677
  594      607.571       676.82
  595      607.988       676.72
  596      608.405       676.58
  597      608.822       676.94
  598      609.239       677.76
  599      609.656       678.76
  600      610.072       679.08
  601      610.489       678.22
  602      610.905       677.12
  603      611.322       676.06
  604      611.738       675.14
  605      612.154       674.96
  606       612.57       675.56
  607      612.986       676.14
  608      613.402       676.48
  609      613.818       676.02
  610      614.234       675.26
