scansci Spectrometer Data File
--- Measurement Setting ---
Type: Sample Spectrum
Date: Mon Oct 16 16:32:47 2023
User: (Reserved by scansci)
Serial: (Reserved by scansci)
Channel: No. 11
Integration Time: 1
Average: 10
Boxcar: 2
Electrical Dark: No-corrected
Time Normalize: (Reserved by scansci)
Dual-beam: (Reserved by scansci)
Reference Ch: (Reserved by scansci)
--- Measurement Data ---
Pixel   Wavelength   Intensity
    0        344.4      663.033
    1      344.867      663.475
    2      345.334       663.68
    3      345.801       663.66
    4      346.268        663.5
    5      346.735       663.48
    6      347.202       662.94
    7      347.669       661.98
    8      348.135       661.24
    9      348.602       660.96
   10      349.068        660.9
   11      349.535       660.98
   12      350.001        661.3
   13      350.467       661.76
   14      350.933       662.18
   15      351.399       662.22
   16      351.866       662.24
   17      352.331       662.42
   18      352.797        662.3
   19      353.263       662.26
   20      353.729       662.38
   21      354.194       662.34
   22       354.66       661.98
   23      355.126       661.92
   24      355.591       661.98
   25      356.056       661.76
   26      356.522       661.52
   27      356.987       662.34
   28      357.452       662.96
   29      357.917       662.62
   30      358.382       662.12
   31      358.847       661.94
   32      359.312        661.5
   33      359.776        661.2
   34      360.241       661.36
   35      360.706       661.56
   36       361.17       661.74
   37      361.634       661.74
   38      362.099       661.66
   39      362.563       661.72
   40      363.027       662.22
   41      363.491       662.56
   42      363.955       662.64
   43      364.419       662.76
   44      364.883       662.42
   45      365.347        661.8
   46      365.811       661.42
   47      366.274       661.04
   48      366.738       660.72
   49      367.201       660.98
   50      367.665       661.12
   51      368.128       661.28
   52      368.592       661.74
   53      369.055       662.32
   54      369.518       662.26
   55      369.981       662.06
   56      370.444       661.34
   57      370.907        660.2
   58       371.37       659.18
   59      371.832       658.96
   60      372.295       659.14
   61      372.757        659.7
   62       373.22       660.34
   63      373.682       660.28
   64      374.145       659.92
   65      374.607        659.9
   66      375.069       660.24
   67      375.531       660.64
   68      375.993       661.36
   69      376.455       662.18
   70      376.917       662.62
   71      377.379       662.44
   72      377.841       662.24
   73      378.302       662.56
   74      378.764        662.9
   75      379.225       663.08
   76      379.687       663.14
   77      380.148        663.2
   78      380.609       662.96
   79      381.071        662.8
   80      381.532       662.62
   81      381.993       662.46
   82      382.454       662.38
   83      382.915       662.26
   84      383.375       662.08
   85      383.836       661.84
   86      384.297       661.58
   87      384.757        661.5
   88      385.218        661.6
   89      385.678       661.74
   90      386.138       661.94
   91      386.599       662.82
   92      387.059        663.1
   93      387.519        662.7
   94      387.979       662.02
   95      388.439       661.44
   96      388.899        660.4
   97      389.358       659.74
   98      389.818        659.8
   99      390.278       660.06
  100      390.737        660.5
  101      391.197        661.8
  102      391.656       663.42
  103      392.115       664.54
  104      392.575       665.16
  105      393.034       665.36
  106      393.493       664.64
  107      393.952       663.76
  108      394.411       663.34
  109       394.87       662.92
  110      395.328       662.44
  111      395.787       662.26
  112      396.246       662.24
  113      396.704       662.24
  114      397.163        662.8
  115      397.621        663.6
  116      398.079       664.22
  117      398.537       664.72
  118      398.995        664.6
  119      399.454       663.82
  120      399.911       662.76
  121      400.369       661.66
  122      400.827       660.26
  123      401.285       659.44
  124      401.743       659.76
  125        402.2       660.44
  126      402.658       661.18
  127      403.115       661.78
  128      403.572       661.86
  129       404.03       661.16
  130      404.487       660.56
  131      404.944       660.44
  132      405.401       660.92
  133      405.858       661.86
  134      406.315       662.74
  135      406.771       663.18
  136      407.228       663.32
  137      407.685       663.28
  138      408.141       663.08
  139      408.598       662.94
  140      409.054       663.02
  141       409.51        663.2
  142      409.967       663.58
  143      410.423       663.98
  144      410.879       664.26
  145      411.335       664.26
  146      411.791       664.04
  147      412.246       663.66
  148      412.702       663.38
  149      413.158        663.1
  150      413.613       662.98
  151      414.069        662.6
  152      414.524       662.12
  153       414.98       661.84
  154      415.435       661.48
  155       415.89       661.24
  156      416.345       661.48
  157        416.8        661.6
  158      417.255       661.48
  159       417.71       661.82
  160      418.165       661.78
  161      418.619       661.38
  162      419.074       661.38
  163      419.529       661.36
  164      419.983       660.94
  165      420.437          661
  166      420.892       661.54
  167      421.346          662
  168        421.8        662.7
  169      422.254       663.44
  170      422.708       664.04
  171      423.162       664.22
  172      423.616       663.98
  173       424.07        663.4
  174      424.523       662.66
  175      424.977       661.66
  176       425.43       660.84
  177      425.884       660.18
  178      426.337       659.62
  179       426.79       659.62
  180      427.243       659.92
  181      427.697       660.16
  182       428.15       660.42
  183      428.602       660.56
  184      429.055       660.66
  185      429.508       660.86
  186      429.961       660.82
  187      430.413       661.04
  188      430.866        661.3
  189      431.318       661.38
  190      431.771       661.56
  191      432.223        661.9
  192      432.675       662.28
  193      433.127        662.9
  194      433.579       662.94
  195      434.031        662.7
  196      434.483       662.32
  197      434.935        661.3
  198      435.387       659.98
  199      435.838       659.42
  200       436.29       659.26
  201      436.741       660.08
  202      437.193       661.64
  203      437.644       663.02
  204      438.095       663.68
  205      438.546       663.86
  206      438.997       663.64
  207      439.448       663.24
  208      439.899        662.9
  209       440.35        662.7
  210      440.801       662.52
  211      441.251       662.02
  212      441.702       661.08
  213      442.152       660.22
  214      442.603       659.94
  215      443.053       660.08
  216      443.503        660.1
  217      443.954       659.98
  218      444.404       660.06
  219      444.854       660.04
  220      445.304          660
  221      445.753       659.98
  222      446.203       660.14
  223      446.653       660.46
  224      447.102       660.48
  225      447.552       660.24
  226      448.001       660.08
  227      448.451          660
  228        448.9       660.18
  229      449.349          661
  230      449.798       662.18
  231      450.247       663.52
  232      450.696       664.84
  233      451.145       665.14
  234      451.594       664.66
  235      452.042       663.94
  236      452.491       662.78
  237      452.939       661.28
  238      453.388       660.62
  239      453.836       660.72
  240      454.285       660.94
  241      454.733       661.64
  242      455.181       662.92
  243      455.629       663.38
  244      456.077       663.26
  245      456.525       663.12
  246      456.972       662.74
  247       457.42       662.08
  248      457.868       661.62
  249      458.315       661.44
  250      458.763       661.16
  251       459.21       660.74
  252      459.657       660.68
  253      460.104       660.76
  254      460.552        660.7
  255      460.999       661.04
  256      461.446       661.74
  257      461.892       662.34
  258      462.339       663.28
  259      462.786       664.16
  260      463.233       664.34
  261      463.679        664.3
  262      464.125        664.1
  263      464.572       663.26
  264      465.018        662.2
  265      465.464       661.38
  266       465.91       660.76
  267      466.356       660.26
  268      466.802        660.1
  269      467.248       660.02
  270      467.694       660.18
  271       468.14        660.4
  272      468.585       660.16
  273      469.031       659.82
  274      469.476       659.66
  275      469.922        659.1
  276      470.367       658.42
  277      470.812       658.04
  278      471.257       657.88
  279      471.702       658.52
  280      472.147       659.86
  281      472.592       660.66
  282      473.037        661.2
  283      473.482       661.86
  284      473.926       661.82
  285      474.371        660.9
  286      474.815       660.06
  287      475.259       659.48
  288      475.704       658.86
  289      476.148       657.98
  290      476.592       657.26
  291      477.036        656.9
  292       477.48       656.48
  293      477.924       655.72
  294      478.368        655.4
  295      478.811       655.78
  296      479.255       656.24
  297      479.698       656.88
  298      480.142          658
  299      480.585       659.22
  300      481.028       660.16
  301      481.472       661.08
  302      481.915          662
  303      482.358       662.52
  304      482.801       662.16
  305      483.244        661.8
  306      483.686       661.68
  307      484.129        661.4
  308      484.572       661.42
  309      485.014       662.24
  310      485.456       662.64
  311      485.899       662.44
  312      486.341          662
  313      486.783        661.2
  314      487.225        660.2
  315      487.667       659.72
  316      488.109       659.26
  317      488.551        658.7
  318      488.993       658.66
  319      489.434          659
  320      489.876        659.1
  321      490.318        659.8
  322      490.759       661.08
  323        491.2       661.58
  324      491.641        661.8
  325      492.083       662.12
  326      492.524       661.96
  327      492.965        661.4
  328      493.406        661.1
  329      493.846       660.48
  330      494.287       659.86
  331      494.728        659.8
  332      495.168       660.38
  333      495.609       661.48
  334      496.049       662.52
  335      496.489       662.96
  336       496.93       662.68
  337       497.37       661.64
  338       497.81        660.4
  339       498.25       659.82
  340       498.69          660
  341      499.129       660.24
  342      499.569       660.86
  343      500.009       661.48
  344      500.448       661.74
  345      500.888       661.64
  346      501.327        661.7
  347      501.766        661.5
  348      502.206       661.04
  349      502.645       660.42
  350      503.084       659.72
  351      503.523       659.38
  352      503.961       658.96
  353        504.4       658.52
  354      504.839       658.26
  355      505.277        658.5
  356      505.716       658.72
  357      506.154       659.62
  358      506.593       660.76
  359      507.031       661.32
  360      507.469       661.16
  361      507.907       660.72
  362      508.345        659.8
  363      508.783        658.8
  364      509.221        658.6
  365      509.659       658.64
  366      510.096        658.6
  367      510.534       658.76
  368      510.971       659.14
  369      511.409       659.52
  370      511.846       660.14
  371      512.283       661.14
  372       512.72       662.12
  373      513.157       662.82
  374      513.594       663.14
  375      514.031       663.24
  376      514.468       662.96
  377      514.905       662.12
  378      515.341          661
  379      515.778       660.24
  380      516.214       659.92
  381       516.65       659.46
  382      517.087       659.78
  383      517.523       660.78
  384      517.959       661.22
  385      518.395       661.26
  386      518.831       661.64
  387      519.267       661.64
  388      519.702       661.06
  389      520.138       660.78
  390      520.574       660.58
  391      521.009        660.3
  392      521.444       660.18
  393       521.88       660.38
  394      522.315       660.86
  395       522.75       661.22
  396      523.185        661.6
  397       523.62        661.8
  398      524.055       661.98
  399       524.49       662.38
  400      524.924       662.72
  401      525.359       662.84
  402      525.794        662.9
  403      526.228        662.8
  404      526.662       661.96
  405      527.097        661.2
  406      527.531       660.72
  407      527.965        660.3
  408      528.399        659.9
  409      528.833       660.12
  410      529.267       660.28
  411        529.7        660.1
  412      530.134       659.84
  413      530.568       659.82
  414      531.001        659.4
  415      531.434       659.48
  416      531.868       660.52
  417      532.301       661.72
  418      532.734       662.68
  419      533.167        663.6
  420        533.6       663.88
  421      534.033       663.36
  422      534.466       663.02
  423      534.898        662.7
  424      535.331       662.62
  425      535.763        663.4
  426      536.196       663.88
  427      536.628        663.9
  428       537.06        664.3
  429      537.493        664.4
  430      537.925       663.76
  431      538.357       663.24
  432      538.788       662.82
  433       539.22       662.08
  434      539.652       661.66
  435      540.084       661.62
  436      540.515        662.1
  437      540.947       662.42
  438      541.378       662.56
  439      541.809       663.22
  440       542.24       663.68
  441      542.672        663.4
  442      543.103       662.78
  443      543.533       662.02
  444      543.964        660.4
  445      544.395        658.8
  446      544.826       657.88
  447      545.256       657.98
  448      545.687       658.76
  449      546.117       660.02
  450      546.547       661.32
  451      546.978       662.24
  452      547.408       663.04
  453      547.838       663.76
  454      548.268       664.02
  455      548.698        664.5
  456      549.127       665.42
  457      549.557       665.76
  458      549.987        665.3
  459      550.416       664.86
  460      550.846       664.44
  461      551.275          664
  462      551.704       663.14
  463      552.133       662.04
  464      552.562       660.64
  465      552.991        658.9
  466       553.42       657.16
  467      553.849       656.54
  468      554.278       656.96
  469      554.706       657.74
  470      555.135        658.5
  471      555.563       659.32
  472      555.991        659.8
  473       556.42        660.2
  474      556.848       660.88
  475      557.276        661.5
  476      557.704       661.86
  477      558.132       662.14
  478       558.56       662.18
  479      558.987       661.98
  480      559.415       661.62
  481      559.843        660.9
  482       560.27       660.16
  483      560.697       659.48
  484      561.125       659.26
  485      561.552       659.74
  486      561.979       660.42
  487      562.406       660.98
  488      562.833       661.58
  489       563.26       661.68
  490      563.686       661.38
  491      564.113       661.24
  492       564.54       661.32
  493      564.966        661.4
  494      565.392       661.74
  495      565.819       661.94
  496      566.245       661.74
  497      566.671       661.44
  498      567.097       661.42
  499      567.523       661.06
  500      567.949       661.06
  501      568.374        661.5
  502        568.8       661.64
  503      569.226       661.42
  504      569.651       661.26
  505      570.077       660.86
  506      570.502       660.48
  507      570.927       660.52
  508      571.352       660.62
  509      571.777       660.44
  510      572.202        660.2
  511      572.627       659.94
  512      573.052       659.64
  513      573.476       659.74
  514      573.901       660.12
  515      574.325        660.2
  516       574.75       660.08
  517      575.174       660.26
  518      575.598       660.12
  519      576.022       660.18
  520      576.446       660.46
  521       576.87       660.72
  522      577.294       661.04
  523      577.718       661.56
  524      578.142       661.98
  525      578.565       662.32
  526      578.989       662.68
  527      579.412       662.78
  528      579.835        662.5
  529      580.259       661.84
  530      580.682       661.24
  531      581.105        660.9
  532      581.528       660.42
  533      581.951       659.76
  534      582.373        659.7
  535      582.796        659.9
  536      583.219       659.98
  537      583.641       660.58
  538      584.063       661.26
  539      584.486        661.6
  540      584.908       662.16
  541       585.33       662.76
  542      585.752       662.26
  543      586.174       661.82
  544      586.596        661.2
  545      587.018       660.44
  546      587.439       659.94
  547      587.861       660.04
  548      588.282       659.98
  549      588.704        660.4
  550      589.125       661.22
  551      589.546       661.94
  552      589.967       662.66
  553      590.388       663.16
  554      590.809       663.28
  555       591.23       663.08
  556      591.651       662.54
  557      592.071       661.96
  558      592.492       661.98
  559      592.912       662.44
  560      593.333       662.86
  561      593.753       663.08
  562      594.173       663.12
  563      594.593       663.06
  564      595.013       662.74
  565      595.433       662.16
  566      595.853       662.04
  567      596.273       661.94
  568      596.693       661.98
  569      597.112       662.08
  570      597.532       662.06
  571      597.951       661.78
  572       598.37       661.96
  573      598.789       662.18
  574      599.208        662.3
  575      599.627       662.34
  576      600.046       662.48
  577      600.465       662.62
  578      600.884       662.62
  579      601.303       662.42
  580      601.721          662
  581      602.139       661.14
  582      602.558       660.46
  583      602.976        660.1
  584      603.394        659.8
  585      603.812       659.92
  586       604.23       660.74
  587      604.648       661.42
  588      605.066       662.04
  589      605.484       662.68
  590      605.901       663.06
  591      606.319       663.18
  592      606.736       662.78
  593      607.154       662.08
  594      607.571        661.6
  595      607.988       661.46
  596      608.405        661.6
  597      608.822       661.66
  598      609.239       661.58
  599      609.656       661.62
  600      610.072       661.42
  601      610.489       660.84
  602      610.905       660.96
  603      611.322       661.56
  604      611.738       662.32
  605      612.154       663.02
  606       612.57        663.6
  607      612.986       663.72
  608      613.402       663.18
  609      613.818       662.28
  610      614.234       661.74
